Lambda,Intensity
273.00,0.0000E+000
273.50,0.0000E+000
274.00,0.0000E+000
274.50,0.0000E+000
275.00,0.0000E+000
275.50,0.0000E+000
276.00,0.0000E+000
276.50,0.0000E+000
277.00,0.0000E+000
277.50,0.0000E+000
278.00,0.0000E+000
278.50,0.0000E+000
279.00,0.0000E+000
279.50,0.0000E+000
280.00,0.0000E+000
280.50,0.0000E+000
281.00,0.0000E+000
281.50,0.0000E+000
282.00,0.0000E+000
282.50,0.0000E+000
283.00,0.0000E+000
283.50,0.0000E+000
284.00,0.0000E+000
284.50,0.0000E+000
285.00,0.0000E+000
285.50,0.0000E+000
286.00,0.0000E+000
286.50,0.0000E+000
287.00,0.0000E+000
287.50,0.0000E+000
288.00,0.0000E+000
288.50,0.0000E+000
289.00,0.0000E+000
289.50,0.0000E+000
290.00,0.0000E+000
290.50,0.0000E+000
291.00,0.0000E+000
291.50,0.0000E+000
292.00,0.0000E+000
292.50,0.0000E+000
293.00,0.0000E+000
293.50,0.0000E+000
294.00,0.0000E+000
294.50,0.0000E+000
295.00,0.0000E+000
295.50,0.0000E+000
296.00,0.0000E+000
296.50,0.0000E+000
297.00,0.0000E+000
297.50,0.0000E+000
298.00,0.0000E+000
298.50,0.0000E+000
299.00,0.0000E+000
299.50,0.0000E+000
300.00,0.0000E+000
300.50,0.0000E+000
301.00,0.0000E+000
301.50,0.0000E+000
302.00,0.0000E+000
302.50,0.0000E+000
303.00,0.0000E+000
303.50,0.0000E+000
304.00,0.0000E+000
304.50,0.0000E+000
305.00,0.0000E+000
305.50,0.0000E+000
306.00,0.0000E+000
306.50,0.0000E+000
307.00,0.0000E+000
307.50,0.0000E+000
308.00,0.0000E+000
308.50,0.0000E+000
309.00,0.0000E+000
309.50,0.0000E+000
310.00,0.0000E+000
310.50,0.0000E+000
311.00,0.0000E+000
311.50,2.5159E-005
312.00,8.6594E-005
312.50,1.1445E-004
313.00,1.1512E-004
313.50,2.7426E-005
314.00,0.0000E+000
314.50,0.0000E+000
315.00,0.0000E+000
315.50,0.0000E+000
316.00,0.0000E+000
316.50,0.0000E+000
317.00,0.0000E+000
317.50,0.0000E+000
318.00,0.0000E+000
318.50,0.0000E+000
319.00,2.9996E-007
319.50,5.8980E-006
320.00,4.4903E-006
320.50,0.0000E+000
321.00,0.0000E+000
321.50,0.0000E+000
322.00,0.0000E+000
322.50,0.0000E+000
323.00,0.0000E+000
323.50,0.0000E+000
324.00,0.0000E+000
324.50,0.0000E+000
325.00,0.0000E+000
325.50,0.0000E+000
326.00,0.0000E+000
326.50,0.0000E+000
327.00,0.0000E+000
327.50,0.0000E+000
328.00,0.0000E+000
328.50,0.0000E+000
329.00,0.0000E+000
329.50,0.0000E+000
330.00,0.0000E+000
330.50,0.0000E+000
331.00,0.0000E+000
331.50,3.9347E-006
332.00,6.5009E-006
332.50,1.4749E-005
333.00,4.6419E-007
333.50,0.0000E+000
334.00,0.0000E+000
334.50,0.0000E+000
335.00,0.0000E+000
335.50,9.6631E-006
336.00,1.8606E-005
336.50,1.8357E-005
337.00,2.5232E-005
337.50,1.9196E-005
338.00,2.1833E-005
338.50,4.3328E-005
339.00,5.8873E-005
339.50,7.3797E-005
340.00,6.8264E-005
340.50,6.0850E-005
341.00,3.6008E-005
341.50,2.7775E-005
342.00,3.6040E-005
342.50,4.6995E-005
343.00,6.4253E-005
343.50,5.6391E-005
344.00,3.4935E-005
344.50,7.3890E-006
345.00,3.0012E-008
345.50,0.0000E+000
346.00,7.8284E-006
346.50,2.7769E-005
347.00,3.7256E-005
347.50,4.3528E-005
348.00,4.8286E-005
348.50,4.4717E-005
349.00,2.6079E-005
349.50,9.3626E-007
350.00,0.0000E+000
350.50,1.9626E-005
351.00,6.1298E-005
351.50,7.6510E-005
352.00,8.1072E-005
352.50,8.5463E-005
353.00,1.0034E-004
353.50,1.2082E-004
354.00,1.4016E-004
354.50,1.3954E-004
355.00,1.4957E-004
355.50,1.6215E-004
356.00,1.6629E-004
356.50,1.6280E-004
357.00,1.5296E-004
357.50,1.4105E-004
358.00,1.2577E-004
358.50,1.2055E-004
359.00,1.2311E-004
359.50,1.2153E-004
360.00,1.4278E-004
360.50,1.5444E-004
361.00,1.5464E-004
361.50,1.4283E-004
362.00,1.3582E-004
362.50,1.4917E-004
363.00,1.5896E-004
363.50,1.7075E-004
364.00,1.8103E-004
364.50,1.7199E-004
365.00,1.4810E-004
365.50,1.3727E-004
366.00,1.2792E-004
366.50,1.4109E-004
367.00,1.7488E-004
367.50,1.9641E-004
368.00,2.1074E-004
368.50,2.3260E-004
369.00,2.3440E-004
369.50,2.2735E-004
370.00,2.3477E-004
370.50,2.3312E-004
371.00,2.3983E-004
371.50,2.4433E-004
372.00,2.3736E-004
372.50,2.3904E-004
373.00,2.4781E-004
373.50,2.6422E-004
374.00,2.8522E-004
374.50,2.9086E-004
375.00,2.8622E-004
375.50,2.8394E-004
376.00,2.9090E-004
376.50,3.0951E-004
377.00,3.1219E-004
377.50,3.1154E-004
378.00,3.0967E-004
378.50,3.0836E-004
379.00,3.2398E-004
379.50,3.2578E-004
380.00,3.4297E-004
380.50,3.5401E-004
381.00,3.4895E-004
381.50,3.4626E-004
382.00,3.2152E-004
382.50,3.2650E-004
383.00,3.4487E-004
383.50,3.4881E-004
384.00,3.6164E-004
384.50,3.7059E-004
385.00,3.9057E-004
385.50,4.2498E-004
386.00,4.4446E-004
386.50,4.4908E-004
387.00,4.4334E-004
387.50,4.3616E-004
388.00,4.3062E-004
388.50,4.2832E-004
389.00,4.4426E-004
389.50,4.4988E-004
390.00,4.5843E-004
390.50,4.7784E-004
391.00,4.7952E-004
391.50,4.9017E-004
392.00,4.9151E-004
392.50,5.0593E-004
393.00,5.3114E-004
393.50,5.4533E-004
394.00,5.6496E-004
394.50,5.7907E-004
395.00,5.9723E-004
395.50,6.1022E-004
396.00,6.0897E-004
396.50,6.0335E-004
397.00,5.9777E-004
397.50,5.9251E-004
398.00,6.0103E-004
398.50,6.0745E-004
399.00,6.1481E-004
399.50,6.2026E-004
400.00,6.1760E-004
400.50,6.1086E-004
401.00,6.1462E-004
401.50,6.2431E-004
402.00,6.4199E-004
402.50,6.7294E-004
403.00,6.9575E-004
403.50,6.9878E-004
404.00,6.8849E-004
404.50,6.7971E-004
405.00,6.9164E-004
405.50,7.2752E-004
406.00,7.5750E-004
406.50,7.7113E-004
407.00,7.6819E-004
407.50,7.6164E-004
408.00,7.6201E-004
408.50,7.7397E-004
409.00,7.8718E-004
409.50,8.0161E-004
410.00,8.0914E-004
410.50,8.2764E-004
411.00,8.4552E-004
411.50,8.5923E-004
412.00,8.7063E-004
412.50,8.6893E-004
413.00,8.7002E-004
413.50,8.6928E-004
414.00,8.5948E-004
414.50,8.6872E-004
415.00,9.0501E-004
415.50,9.4781E-004
416.00,9.8033E-004
416.50,9.8648E-004
417.00,9.7407E-004
417.50,9.6625E-004
418.00,9.7621E-004
418.50,9.7951E-004
419.00,9.9526E-004
419.50,1.0065E-003
420.00,1.0309E-003
420.50,1.0601E-003
421.00,1.0622E-003
421.50,1.0606E-003
422.00,1.0616E-003
422.50,1.0716E-003
423.00,1.0971E-003
423.50,1.1119E-003
424.00,1.1328E-003
424.50,1.1515E-003
425.00,1.1600E-003
425.50,1.1638E-003
426.00,1.1674E-003
426.50,1.1766E-003
427.00,1.1974E-003
427.50,1.2162E-003
428.00,1.2296E-003
428.50,1.2454E-003
429.00,1.2544E-003
429.50,1.2649E-003
430.00,1.2734E-003
430.50,1.2741E-003
431.00,1.2922E-003
431.50,1.3051E-003
432.00,1.3328E-003
432.50,1.3526E-003
433.00,1.3599E-003
433.50,1.3725E-003
434.00,1.3927E-003
434.50,1.4105E-003
435.00,1.4287E-003
435.50,1.4466E-003
436.00,1.4561E-003
436.50,1.4648E-003
437.00,1.4643E-003
437.50,1.4630E-003
438.00,1.4657E-003
438.50,1.4964E-003
439.00,1.5231E-003
439.50,1.5513E-003
440.00,1.5815E-003
440.50,1.5920E-003
441.00,1.5987E-003
441.50,1.6112E-003
442.00,1.6262E-003
442.50,1.6482E-003
443.00,1.6713E-003
443.50,1.6853E-003
444.00,1.7027E-003
444.50,1.7316E-003
445.00,1.7408E-003
445.50,1.7682E-003
446.00,1.7707E-003
446.50,1.7894E-003
447.00,1.7962E-003
447.50,1.7940E-003
448.00,1.7983E-003
448.50,1.8048E-003
449.00,1.8283E-003
449.50,1.8471E-003
450.00,1.8395E-003
450.50,1.8405E-003
451.00,1.8522E-003
451.50,1.8802E-003
452.00,1.9080E-003
452.50,1.9222E-003
453.00,1.9480E-003
453.50,1.9630E-003
454.00,1.9812E-003
454.50,2.0052E-003
455.00,2.0235E-003
455.50,2.0605E-003
456.00,2.0940E-003
456.50,2.1228E-003
457.00,2.1366E-003
457.50,2.1527E-003
458.00,2.1496E-003
458.50,2.1456E-003
459.00,2.1584E-003
459.50,2.1715E-003
460.00,2.2042E-003
460.50,2.2232E-003
461.00,2.2484E-003
461.50,2.2793E-003
462.00,2.3026E-003
462.50,2.3282E-003
463.00,2.3446E-003
463.50,2.3566E-003
464.00,2.3870E-003
464.50,2.4045E-003
465.00,2.4174E-003
465.50,2.4258E-003
466.00,2.4236E-003
466.50,2.4513E-003
467.00,2.4882E-003
467.50,2.5217E-003
468.00,2.5540E-003
468.50,2.5886E-003
469.00,2.6163E-003
469.50,2.6431E-003
470.00,2.6616E-003
470.50,2.6854E-003
471.00,2.7320E-003
471.50,2.7709E-003
472.00,2.7992E-003
472.50,2.8170E-003
473.00,2.8226E-003
473.50,2.8334E-003
474.00,2.8528E-003
474.50,2.8825E-003
475.00,2.9072E-003
475.50,2.9215E-003
476.00,2.9362E-003
476.50,2.9583E-003
477.00,2.9832E-003
477.50,3.0019E-003
478.00,2.9929E-003
478.50,2.9869E-003
479.00,2.9930E-003
479.50,3.0319E-003
480.00,3.0988E-003
480.50,3.1420E-003
481.00,3.1533E-003
481.50,3.1542E-003
482.00,3.1561E-003
482.50,3.1732E-003
483.00,3.1818E-003
483.50,3.1967E-003
484.00,3.2311E-003
484.50,3.2586E-003
485.00,3.2718E-003
485.50,3.2608E-003
486.00,3.2567E-003
486.50,3.2754E-003
487.00,3.2934E-003
487.50,3.3037E-003
488.00,3.3049E-003
488.50,3.3211E-003
489.00,3.3542E-003
489.50,3.3826E-003
490.00,3.3845E-003
490.50,3.3714E-003
491.00,3.3693E-003
491.50,3.3861E-003
492.00,3.4282E-003
492.50,3.4464E-003
493.00,3.4540E-003
493.50,3.4599E-003
494.00,3.4656E-003
494.50,3.4911E-003
495.00,3.5153E-003
495.50,3.5497E-003
496.00,3.5752E-003
496.50,3.5847E-003
497.00,3.5870E-003
497.50,3.5954E-003
498.00,3.6176E-003
498.50,3.6483E-003
499.00,3.6776E-003
499.50,3.6938E-003
500.00,3.7031E-003
500.50,3.7076E-003
501.00,3.7230E-003
501.50,3.7447E-003
502.00,3.7755E-003
502.50,3.8030E-003
503.00,3.8282E-003
503.50,3.8451E-003
504.00,3.8727E-003
504.50,3.9042E-003
505.00,3.9429E-003
505.50,3.9602E-003
506.00,3.9709E-003
506.50,3.9855E-003
507.00,4.0079E-003
507.50,4.0449E-003
508.00,4.0655E-003
508.50,4.0874E-003
509.00,4.1069E-003
509.50,4.1250E-003
510.00,4.1573E-003
510.50,4.1895E-003
511.00,4.2202E-003
511.50,4.2442E-003
512.00,4.2676E-003
512.50,4.2838E-003
513.00,4.3100E-003
513.50,4.3138E-003
514.00,4.3218E-003
514.50,4.3396E-003
515.00,4.3651E-003
515.50,4.4117E-003
516.00,4.4454E-003
516.50,4.4789E-003
517.00,4.5095E-003
517.50,4.5305E-003
518.00,4.5611E-003
518.50,4.5928E-003
519.00,4.6193E-003
519.50,4.6477E-003
520.00,4.6625E-003
520.50,4.6847E-003
521.00,4.7131E-003
521.50,4.7439E-003
522.00,4.7743E-003
522.50,4.7987E-003
523.00,4.8187E-003
523.50,4.8372E-003
524.00,4.8658E-003
524.50,4.9017E-003
525.00,4.9443E-003
525.50,4.9887E-003
526.00,5.0227E-003
526.50,5.0580E-003
527.00,5.0897E-003
527.50,5.1311E-003
528.00,5.1668E-003
528.50,5.2029E-003
529.00,5.2334E-003
529.50,5.2586E-003
530.00,5.2829E-003
530.50,5.3161E-003
531.00,5.3546E-003
531.50,5.4063E-003
532.00,5.4456E-003
532.50,5.4780E-003
533.00,5.5042E-003
533.50,5.5443E-003
534.00,5.5898E-003
534.50,5.6355E-003
535.00,5.6697E-003
535.50,5.6987E-003
536.00,5.7252E-003
536.50,5.7590E-003
537.00,5.7925E-003
537.50,5.8271E-003
538.00,5.8593E-003
538.50,5.8952E-003
539.00,5.9254E-003
539.50,5.9637E-003
540.00,6.0092E-003
540.50,6.0559E-003
541.00,6.1030E-003
541.50,6.1378E-003
542.00,6.1686E-003
542.50,6.2091E-003
543.00,6.2679E-003
543.50,6.3215E-003
544.00,6.3576E-003
544.50,6.3807E-003
545.00,6.4075E-003
545.50,6.4506E-003
546.00,6.4918E-003
546.50,6.5242E-003
547.00,6.5652E-003
547.50,6.5971E-003
548.00,6.6457E-003
548.50,6.6996E-003
549.00,6.7656E-003
549.50,6.8156E-003
550.00,6.8392E-003
550.50,6.8649E-003
551.00,6.8917E-003
551.50,6.9245E-003
552.00,6.9573E-003
552.50,6.9913E-003
553.00,7.0385E-003
553.50,7.0774E-003
554.00,7.1030E-003
554.50,7.1391E-003
555.00,7.1748E-003
555.50,7.2254E-003
556.00,7.2639E-003
556.50,7.2895E-003
557.00,7.3352E-003
557.50,7.3962E-003
558.00,7.4597E-003
558.50,7.4964E-003
559.00,7.5291E-003
559.50,7.5664E-003
560.00,7.6404E-003
560.50,7.6920E-003
561.00,7.7511E-003
561.50,7.7905E-003
562.00,7.8224E-003
562.50,7.8793E-003
563.00,7.9095E-003
563.50,7.9400E-003
564.00,7.9630E-003
564.50,7.9937E-003
565.00,8.0371E-003
565.50,8.0768E-003
566.00,8.0921E-003
566.50,8.1162E-003
567.00,8.1474E-003
567.50,8.1913E-003
568.00,8.2473E-003
568.50,8.2864E-003
569.00,8.3333E-003
569.50,8.3853E-003
570.00,8.4315E-003
570.50,8.4554E-003
571.00,8.4607E-003
571.50,8.4796E-003
572.00,8.5166E-003
572.50,8.5631E-003
573.00,8.6202E-003
573.50,8.6613E-003
574.00,8.7111E-003
574.50,8.7569E-003
575.00,8.8046E-003
575.50,8.8490E-003
576.00,8.8785E-003
576.50,8.9185E-003
577.00,8.9676E-003
577.50,9.0111E-003
578.00,9.0375E-003
578.50,9.0548E-003
579.00,9.0698E-003
579.50,9.1095E-003
580.00,9.1553E-003
580.50,9.1928E-003
581.00,9.2404E-003
581.50,9.2717E-003
582.00,9.3162E-003
582.50,9.3401E-003
583.00,9.3616E-003
583.50,9.3857E-003
584.00,9.4267E-003
584.50,9.4687E-003
585.00,9.5195E-003
585.50,9.5716E-003
586.00,9.6180E-003
586.50,9.6431E-003
587.00,9.6725E-003
587.50,9.7222E-003
588.00,9.7628E-003
588.50,9.8026E-003
589.00,9.8159E-003
589.50,9.8534E-003
590.00,9.8874E-003
590.50,9.9252E-003
591.00,9.9754E-003
591.50,1.0025E-002
592.00,1.0070E-002
592.50,1.0099E-002
593.00,1.0131E-002
593.50,1.0149E-002
594.00,1.0179E-002
594.50,1.0215E-002
595.00,1.0252E-002
595.50,1.0290E-002
596.00,1.0325E-002
596.50,1.0372E-002
597.00,1.0424E-002
597.50,1.0450E-002
598.00,1.0468E-002
598.50,1.0489E-002
599.00,1.0533E-002
599.50,1.0581E-002
600.00,1.0613E-002
600.50,1.0642E-002
601.00,1.0661E-002
601.50,1.0661E-002
602.00,1.0669E-002
602.50,1.0680E-002
603.00,1.0715E-002
603.50,1.0738E-002
604.00,1.0773E-002
604.50,1.0811E-002
605.00,1.0844E-002
605.50,1.0862E-002
606.00,1.0897E-002
606.50,1.0946E-002
607.00,1.0986E-002
607.50,1.1023E-002
608.00,1.1053E-002
608.50,1.1088E-002
609.00,1.1098E-002
609.50,1.1096E-002
610.00,1.1110E-002
610.50,1.1122E-002
611.00,1.1153E-002
611.50,1.1175E-002
612.00,1.1223E-002
612.50,1.1273E-002
613.00,1.1304E-002
613.50,1.1332E-002
614.00,1.1346E-002
614.50,1.1363E-002
615.00,1.1376E-002
615.50,1.1415E-002
616.00,1.1460E-002
616.50,1.1485E-002
617.00,1.1474E-002
617.50,1.1488E-002
618.00,1.1521E-002
618.50,1.1549E-002
619.00,1.1560E-002
619.50,1.1573E-002
620.00,1.1616E-002
620.50,1.1647E-002
621.00,1.1666E-002
621.50,1.1654E-002
622.00,1.1670E-002
622.50,1.1704E-002
623.00,1.1739E-002
623.50,1.1784E-002
624.00,1.1799E-002
624.50,1.1822E-002
625.00,1.1811E-002
625.50,1.1807E-002
626.00,1.1800E-002
626.50,1.1836E-002
627.00,1.1880E-002
627.50,1.1920E-002
628.00,1.1937E-002
628.50,1.1942E-002
629.00,1.1988E-002
629.50,1.2031E-002
630.00,1.2067E-002
630.50,1.2085E-002
631.00,1.2105E-002
631.50,1.2141E-002
632.00,1.2173E-002
632.50,1.2191E-002
633.00,1.2217E-002
633.50,1.2249E-002
634.00,1.2307E-002
634.50,1.2357E-002
635.00,1.2377E-002
635.50,1.2393E-002
636.00,1.2411E-002
636.50,1.2447E-002
637.00,1.2462E-002
637.50,1.2464E-002
638.00,1.2463E-002
638.50,1.2495E-002
639.00,1.2511E-002
639.50,1.2565E-002
640.00,1.2574E-002
640.50,1.2609E-002
641.00,1.2605E-002
641.50,1.2617E-002
642.00,1.2629E-002
642.50,1.2665E-002
643.00,1.2698E-002
643.50,1.2747E-002
644.00,1.2764E-002
644.50,1.2797E-002
645.00,1.2815E-002
645.50,1.2844E-002
646.00,1.2870E-002
646.50,1.2882E-002
647.00,1.2889E-002
647.50,1.2894E-002
648.00,1.2902E-002
648.50,1.2924E-002
649.00,1.2934E-002
649.50,1.2969E-002
650.00,1.2998E-002
650.50,1.3076E-002
651.00,1.3087E-002
651.50,1.3101E-002
652.00,1.3074E-002
652.50,1.3076E-002
653.00,1.3106E-002
653.50,1.3137E-002
654.00,1.3185E-002
654.50,1.3201E-002
655.00,1.3204E-002
655.50,1.3218E-002
656.00,1.3222E-002
656.50,1.3246E-002
657.00,1.3264E-002
657.50,1.3279E-002
658.00,1.3274E-002
658.50,1.3280E-002
659.00,1.3299E-002
659.50,1.3319E-002
660.00,1.3315E-002
660.50,1.3299E-002
661.00,1.3316E-002
661.50,1.3360E-002
662.00,1.3406E-002
662.50,1.3436E-002
663.00,1.3438E-002
663.50,1.3453E-002
664.00,1.3471E-002
664.50,1.3507E-002
665.00,1.3533E-002
665.50,1.3531E-002
666.00,1.3513E-002
666.50,1.3522E-002
667.00,1.3543E-002
667.50,1.3544E-002
668.00,1.3542E-002
668.50,1.3558E-002
669.00,1.3594E-002
669.50,1.3609E-002
670.00,1.3611E-002
670.50,1.3633E-002
671.00,1.3638E-002
671.50,1.3611E-002
672.00,1.3578E-002
672.50,1.3603E-002
673.00,1.3690E-002
673.50,1.3732E-002
674.00,1.3726E-002
674.50,1.3670E-002
675.00,1.3670E-002
675.50,1.3693E-002
676.00,1.3724E-002
676.50,1.3704E-002
677.00,1.3663E-002
677.50,1.3660E-002
678.00,1.3663E-002
678.50,1.3650E-002
679.00,1.3654E-002
679.50,1.3706E-002
680.00,1.3783E-002
680.50,1.3789E-002
681.00,1.3761E-002
681.50,1.3742E-002
682.00,1.3760E-002
682.50,1.3769E-002
683.00,1.3767E-002
683.50,1.3747E-002
684.00,1.3763E-002
684.50,1.3750E-002
685.00,1.3749E-002
685.50,1.3741E-002
686.00,1.3758E-002
686.50,1.3783E-002
687.00,1.3829E-002
687.50,1.3891E-002
688.00,1.3929E-002
688.50,1.3937E-002
689.00,1.3925E-002
689.50,1.3915E-002
690.00,1.3898E-002
690.50,1.3906E-002
691.00,1.3905E-002
691.50,1.3920E-002
692.00,1.3936E-002
692.50,1.3946E-002
693.00,1.3913E-002
693.50,1.3899E-002
694.00,1.3904E-002
694.50,1.3935E-002
695.00,1.3947E-002
695.50,1.3901E-002
696.00,1.3893E-002
696.50,1.3926E-002
697.00,1.4018E-002
697.50,1.4046E-002
698.00,1.4029E-002
698.50,1.3993E-002
699.00,1.4009E-002
699.50,1.4010E-002
700.00,1.4009E-002
700.50,1.3975E-002
701.00,1.3981E-002
701.50,1.4002E-002
702.00,1.4020E-002
702.50,1.4056E-002
703.00,1.4059E-002
703.50,1.4074E-002
704.00,1.4048E-002
704.50,1.4031E-002
705.00,1.3997E-002
705.50,1.3999E-002
706.00,1.3998E-002
706.50,1.4021E-002
707.00,1.4050E-002
707.50,1.4092E-002
708.00,1.4109E-002
708.50,1.4112E-002
709.00,1.4089E-002
709.50,1.4114E-002
710.00,1.4128E-002
710.50,1.4170E-002
711.00,1.4217E-002
711.50,1.4239E-002
712.00,1.4231E-002
712.50,1.4157E-002
713.00,1.4118E-002
713.50,1.4158E-002
714.00,1.4255E-002
714.50,1.4287E-002
715.00,1.4235E-002
715.50,1.4144E-002
716.00,1.4094E-002
716.50,1.4078E-002
717.00,1.4122E-002
717.50,1.4148E-002
718.00,1.4146E-002
718.50,1.4139E-002
719.00,1.4152E-002
719.50,1.4125E-002
720.00,1.4110E-002
720.50,1.4149E-002
721.00,1.4222E-002
721.50,1.4203E-002
722.00,1.4176E-002
722.50,1.4214E-002
723.00,1.4256E-002
723.50,1.4225E-002
724.00,1.4168E-002
724.50,1.4161E-002
725.00,1.4211E-002
725.50,1.4253E-002
726.00,1.4244E-002
726.50,1.4193E-002
727.00,1.4201E-002
727.50,1.4244E-002
728.00,1.4275E-002
728.50,1.4265E-002
729.00,1.4287E-002
729.50,1.4315E-002
730.00,1.4320E-002
730.50,1.4288E-002
731.00,1.4280E-002
731.50,1.4325E-002
732.00,1.4385E-002
732.50,1.4376E-002
733.00,1.4302E-002
733.50,1.4243E-002
734.00,1.4251E-002
734.50,1.4288E-002
735.00,1.4269E-002
735.50,1.4218E-002
736.00,1.4216E-002
736.50,1.4264E-002
737.00,1.4328E-002
737.50,1.4309E-002
738.00,1.4318E-002
738.50,1.4352E-002
739.00,1.4380E-002
739.50,1.4382E-002
740.00,1.4351E-002
740.50,1.4295E-002
741.00,1.4243E-002
741.50,1.4247E-002
742.00,1.4285E-002
742.50,1.4291E-002
743.00,1.4271E-002
743.50,1.4289E-002
744.00,1.4339E-002
744.50,1.4388E-002
745.00,1.4408E-002
745.50,1.4343E-002
746.00,1.4280E-002
746.50,1.4242E-002
747.00,1.4255E-002
747.50,1.4289E-002
748.00,1.4313E-002
748.50,1.4271E-002
749.00,1.4260E-002
749.50,1.4269E-002
750.00,1.4347E-002
750.50,1.4448E-002
751.00,1.4547E-002
751.50,1.4528E-002
752.00,1.4470E-002
752.50,1.4452E-002
753.00,1.4451E-002
753.50,1.4421E-002
754.00,1.4437E-002
754.50,1.4462E-002
755.00,1.4424E-002
755.50,1.4350E-002
756.00,1.4344E-002
756.50,1.4410E-002
757.00,1.4444E-002
757.50,1.4419E-002
758.00,1.4370E-002
758.50,1.4357E-002
759.00,1.4313E-002
759.50,1.4305E-002
760.00,1.4332E-002
760.50,1.4425E-002
761.00,1.4434E-002
761.50,1.4460E-002
762.00,1.4465E-002
762.50,1.4486E-002
763.00,1.4424E-002
763.50,1.4378E-002
764.00,1.4351E-002
764.50,1.4392E-002
765.00,1.4422E-002
765.50,1.4446E-002
766.00,1.4469E-002
766.50,1.4487E-002
767.00,1.4535E-002
767.50,1.4569E-002
768.00,1.4541E-002
768.50,1.4475E-002
769.00,1.4477E-002
769.50,1.4520E-002
770.00,1.4544E-002
770.50,1.4538E-002
771.00,1.4505E-002
771.50,1.4466E-002
772.00,1.4524E-002
772.50,1.4600E-002
773.00,1.4625E-002
773.50,1.4646E-002
774.00,1.4682E-002
774.50,1.4678E-002
775.00,1.4631E-002
775.50,1.4654E-002
776.00,1.4615E-002
776.50,1.4566E-002
777.00,1.4504E-002
777.50,1.4434E-002
778.00,1.4358E-002
778.50,1.4306E-002
779.00,1.4418E-002
779.50,1.4539E-002
780.00,1.4655E-002
780.50,1.4674E-002
781.00,1.4610E-002
781.50,1.4558E-002
782.00,1.4561E-002
782.50,1.4533E-002
783.00,1.4498E-002
783.50,1.4469E-002
784.00,1.4529E-002
784.50,1.4603E-002
785.00,1.4693E-002
785.50,1.4726E-002
786.00,1.4727E-002
786.50,1.4593E-002
787.00,1.4529E-002
787.50,1.4508E-002
788.00,1.4473E-002
788.50,1.4456E-002
789.00,1.4527E-002
789.50,1.4512E-002
790.00,1.4449E-002
790.50,1.4430E-002
791.00,1.4499E-002
791.50,1.4562E-002
792.00,1.4551E-002
792.50,1.4547E-002
793.00,1.4551E-002
793.50,1.4550E-002
794.00,1.4493E-002
794.50,1.4538E-002
795.00,1.4619E-002
795.50,1.4641E-002
796.00,1.4721E-002
796.50,1.4810E-002
797.00,1.4814E-002
797.50,1.4755E-002
798.00,1.4660E-002
798.50,1.4691E-002
799.00,1.4720E-002
799.50,1.4761E-002
800.00,1.4649E-002
800.50,1.4638E-002
801.00,1.4640E-002
801.50,1.4619E-002
802.00,1.4597E-002
802.50,1.4707E-002
803.00,1.4776E-002
803.50,1.4778E-002
804.00,1.4699E-002
804.50,1.4591E-002
805.00,1.4547E-002
805.50,1.4546E-002
806.00,1.4679E-002
806.50,1.4672E-002
807.00,1.4709E-002
807.50,1.4750E-002
808.00,1.4834E-002
808.50,1.4741E-002
809.00,1.4683E-002
809.50,1.4730E-002
810.00,1.4685E-002
810.50,1.4619E-002
811.00,1.4647E-002
811.50,1.4805E-002
812.00,1.4847E-002
812.50,1.4790E-002
813.00,1.4709E-002
813.50,1.4656E-002
814.00,1.4713E-002
814.50,1.4732E-002
815.00,1.4788E-002
815.50,1.4830E-002
816.00,1.4826E-002
816.50,1.4770E-002
817.00,1.4716E-002
817.50,1.4682E-002
818.00,1.4808E-002
818.50,1.4793E-002
819.00,1.4711E-002
819.50,1.4573E-002
820.00,1.4621E-002
820.50,1.4649E-002
821.00,1.4738E-002
821.50,1.4854E-002
822.00,1.4974E-002
822.50,1.4957E-002
823.00,1.4963E-002
823.50,1.4952E-002
824.00,1.4952E-002
824.50,1.4829E-002
825.00,1.4788E-002
825.50,1.4826E-002
826.00,1.4852E-002
826.50,1.4891E-002
827.00,1.4920E-002
827.50,1.4880E-002
828.00,1.4783E-002
828.50,1.4753E-002
829.00,1.4806E-002
829.50,1.4799E-002
830.00,1.4903E-002
830.50,1.4934E-002
831.00,1.4848E-002
831.50,1.4872E-002
832.00,1.4957E-002
832.50,1.5026E-002
833.00,1.4936E-002
833.50,1.4967E-002
834.00,1.5049E-002
834.50,1.5193E-002
835.00,1.5206E-002
835.50,1.5110E-002
836.00,1.5042E-002
836.50,1.4940E-002
837.00,1.5029E-002
837.50,1.5101E-002
838.00,1.5038E-002
838.50,1.4934E-002
839.00,1.5063E-002
839.50,1.5162E-002
840.00,1.5140E-002
840.50,1.5089E-002
841.00,1.5189E-002
841.50,1.5145E-002
842.00,1.5035E-002
842.50,1.4983E-002
843.00,1.5021E-002
843.50,1.5118E-002
844.00,1.5142E-002
844.50,1.5156E-002
845.00,1.5244E-002
845.50,1.5197E-002
846.00,1.5097E-002
846.50,1.5100E-002
847.00,1.5229E-002
847.50,1.5259E-002
848.00,1.5146E-002
848.50,1.5106E-002
849.00,1.5118E-002
849.50,1.5174E-002
850.00,1.5258E-002
850.50,1.5390E-002
851.00,1.5499E-002
851.50,1.5464E-002
852.00,1.5543E-002
852.50,1.5595E-002
853.00,1.5502E-002
853.50,1.5404E-002
854.00,1.5292E-002
854.50,1.5083E-002
855.00,1.5043E-002
855.50,1.5223E-002
856.00,1.5407E-002
856.50,1.5500E-002
857.00,1.5464E-002
857.50,1.5430E-002
858.00,1.5351E-002
858.50,1.5364E-002
859.00,1.5463E-002
859.50,1.5393E-002
860.00,1.5275E-002
860.50,1.5250E-002
861.00,1.5362E-002
861.50,1.5415E-002
862.00,1.5452E-002
862.50,1.5476E-002
863.00,1.5506E-002
863.50,1.5429E-002
864.00,1.5323E-002
864.50,1.5353E-002
865.00,1.5401E-002
865.50,1.5523E-002
866.00,1.5456E-002
866.50,1.5180E-002
867.00,1.5168E-002
867.50,1.5335E-002
868.00,1.5485E-002
868.50,1.5579E-002
869.00,1.5511E-002
869.50,1.5356E-002
870.00,1.5438E-002
870.50,1.5423E-002
871.00,1.5376E-002
871.50,1.5526E-002
872.00,1.5714E-002
872.50,1.5671E-002
873.00,1.5657E-002
873.50,1.5755E-002
874.00,1.5837E-002
874.50,1.5669E-002
875.00,1.5531E-002
875.50,1.5469E-002
876.00,1.5697E-002
876.50,1.5777E-002
877.00,1.5723E-002
877.50,1.5549E-002
878.00,1.5766E-002
878.50,1.5897E-002
879.00,1.5824E-002
879.50,1.5697E-002
880.00,1.5572E-002
880.50,1.5578E-002
881.00,1.5494E-002
881.50,1.5309E-002
882.00,1.5221E-002
882.50,1.5224E-002
883.00,1.5440E-002
883.50,1.5588E-002
884.00,1.5704E-002
884.50,1.5822E-002
885.00,1.5814E-002
885.50,1.5578E-002
886.00,1.5443E-002
886.50,1.5561E-002
887.00,1.5920E-002
887.50,1.5822E-002
888.00,1.5709E-002
888.50,1.5766E-002
889.00,1.5946E-002
889.50,1.5966E-002
890.00,1.5609E-002
890.50,1.5381E-002
891.00,1.5580E-002
891.50,1.5739E-002
892.00,1.5766E-002
892.50,1.5555E-002
893.00,1.5380E-002
893.50,1.5506E-002
894.00,1.5496E-002
894.50,1.5438E-002
895.00,1.5235E-002
895.50,1.5407E-002
896.00,1.5732E-002
896.50,1.5933E-002
897.00,1.5997E-002
897.50,1.5986E-002
898.00,1.5999E-002
898.50,1.5914E-002
899.00,1.6039E-002
899.50,3.1862E-004
:5
