Lambda,Intensity
273.00,0.0000E+000
273.50,0.0000E+000
274.00,0.0000E+000
274.50,0.0000E+000
275.00,0.0000E+000
275.50,0.0000E+000
276.00,0.0000E+000
276.50,0.0000E+000
277.00,0.0000E+000
277.50,0.0000E+000
278.00,0.0000E+000
278.50,0.0000E+000
279.00,0.0000E+000
279.50,0.0000E+000
280.00,0.0000E+000
280.50,0.0000E+000
281.00,0.0000E+000
281.50,0.0000E+000
282.00,0.0000E+000
282.50,0.0000E+000
283.00,0.0000E+000
283.50,0.0000E+000
284.00,0.0000E+000
284.50,0.0000E+000
285.00,0.0000E+000
285.50,0.0000E+000
286.00,0.0000E+000
286.50,0.0000E+000
287.00,0.0000E+000
287.50,0.0000E+000
288.00,0.0000E+000
288.50,0.0000E+000
289.00,0.0000E+000
289.50,0.0000E+000
290.00,0.0000E+000
290.50,0.0000E+000
291.00,0.0000E+000
291.50,0.0000E+000
292.00,0.0000E+000
292.50,0.0000E+000
293.00,0.0000E+000
293.50,0.0000E+000
294.00,0.0000E+000
294.50,0.0000E+000
295.00,0.0000E+000
295.50,0.0000E+000
296.00,0.0000E+000
296.50,0.0000E+000
297.00,0.0000E+000
297.50,0.0000E+000
298.00,0.0000E+000
298.50,0.0000E+000
299.00,0.0000E+000
299.50,0.0000E+000
300.00,0.0000E+000
300.50,0.0000E+000
301.00,0.0000E+000
301.50,0.0000E+000
302.00,0.0000E+000
302.50,0.0000E+000
303.00,0.0000E+000
303.50,0.0000E+000
304.00,0.0000E+000
304.50,0.0000E+000
305.00,0.0000E+000
305.50,0.0000E+000
306.00,0.0000E+000
306.50,0.0000E+000
307.00,0.0000E+000
307.50,7.2020E-006
308.00,2.7821E-005
308.50,2.4798E-005
309.00,4.3622E-006
309.50,0.0000E+000
310.00,0.0000E+000
310.50,0.0000E+000
311.00,0.0000E+000
311.50,0.0000E+000
312.00,0.0000E+000
312.50,0.0000E+000
313.00,0.0000E+000
313.50,0.0000E+000
314.00,0.0000E+000
314.50,0.0000E+000
315.00,0.0000E+000
315.50,0.0000E+000
316.00,0.0000E+000
316.50,0.0000E+000
317.00,0.0000E+000
317.50,0.0000E+000
318.00,0.0000E+000
318.50,0.0000E+000
319.00,0.0000E+000
319.50,0.0000E+000
320.00,0.0000E+000
320.50,0.0000E+000
321.00,0.0000E+000
321.50,0.0000E+000
322.00,0.0000E+000
322.50,0.0000E+000
323.00,0.0000E+000
323.50,3.0756E-006
324.00,5.1984E-006
324.50,4.1939E-006
325.00,5.1048E-007
325.50,0.0000E+000
326.00,0.0000E+000
326.50,0.0000E+000
327.00,0.0000E+000
327.50,0.0000E+000
328.00,0.0000E+000
328.50,0.0000E+000
329.00,0.0000E+000
329.50,0.0000E+000
330.00,0.0000E+000
330.50,1.6193E-005
331.00,7.0332E-005
331.50,1.4143E-004
332.00,2.5041E-004
332.50,3.7131E-004
333.00,5.0321E-004
333.50,6.0259E-004
334.00,6.4624E-004
334.50,6.6826E-004
335.00,6.5800E-004
335.50,6.2722E-004
336.00,5.5558E-004
336.50,4.5521E-004
337.00,3.6439E-004
337.50,2.8745E-004
338.00,2.3688E-004
338.50,1.8158E-004
339.00,1.3832E-004
339.50,8.5843E-005
340.00,4.7629E-005
340.50,1.6720E-005
341.00,0.0000E+000
341.50,1.7774E-006
342.00,1.1328E-007
342.50,0.0000E+000
343.00,0.0000E+000
343.50,0.0000E+000
344.00,0.0000E+000
344.50,0.0000E+000
345.00,0.0000E+000
345.50,0.0000E+000
346.00,0.0000E+000
346.50,0.0000E+000
347.00,0.0000E+000
347.50,0.0000E+000
348.00,0.0000E+000
348.50,0.0000E+000
349.00,0.0000E+000
349.50,0.0000E+000
350.00,0.0000E+000
350.50,0.0000E+000
351.00,0.0000E+000
351.50,0.0000E+000
352.00,0.0000E+000
352.50,7.4437E-008
353.00,5.3212E-006
353.50,1.0124E-005
354.00,1.7159E-005
354.50,6.5820E-006
355.00,0.0000E+000
355.50,0.0000E+000
356.00,0.0000E+000
356.50,0.0000E+000
357.00,0.0000E+000
357.50,0.0000E+000
358.00,0.0000E+000
358.50,0.0000E+000
359.00,0.0000E+000
359.50,0.0000E+000
360.00,0.0000E+000
360.50,0.0000E+000
361.00,0.0000E+000
361.50,0.0000E+000
362.00,0.0000E+000
362.50,0.0000E+000
363.00,0.0000E+000
363.50,0.0000E+000
364.00,5.6683E-006
364.50,1.7948E-005
365.00,1.8355E-005
365.50,1.7704E-008
366.00,0.0000E+000
366.50,0.0000E+000
367.00,0.0000E+000
367.50,0.0000E+000
368.00,0.0000E+000
368.50,0.0000E+000
369.00,0.0000E+000
369.50,0.0000E+000
370.00,0.0000E+000
370.50,0.0000E+000
371.00,5.7695E-006
371.50,5.2894E-006
372.00,4.2537E-006
372.50,0.0000E+000
373.00,0.0000E+000
373.50,0.0000E+000
374.00,0.0000E+000
374.50,0.0000E+000
375.00,3.6006E-006
375.50,9.2447E-006
376.00,8.8460E-006
376.50,0.0000E+000
377.00,0.0000E+000
377.50,0.0000E+000
378.00,0.0000E+000
378.50,0.0000E+000
379.00,0.0000E+000
379.50,0.0000E+000
380.00,0.0000E+000
380.50,0.0000E+000
381.00,0.0000E+000
381.50,0.0000E+000
382.00,0.0000E+000
382.50,0.0000E+000
383.00,0.0000E+000
383.50,0.0000E+000
384.00,0.0000E+000
384.50,0.0000E+000
385.00,0.0000E+000
385.50,0.0000E+000
386.00,0.0000E+000
386.50,0.0000E+000
387.00,0.0000E+000
387.50,0.0000E+000
388.00,0.0000E+000
388.50,0.0000E+000
389.00,0.0000E+000
389.50,0.0000E+000
390.00,0.0000E+000
390.50,0.0000E+000
391.00,0.0000E+000
391.50,0.0000E+000
392.00,0.0000E+000
392.50,0.0000E+000
393.00,0.0000E+000
393.50,0.0000E+000
394.00,0.0000E+000
394.50,0.0000E+000
395.00,0.0000E+000
395.50,0.0000E+000
396.00,0.0000E+000
396.50,0.0000E+000
397.00,0.0000E+000
397.50,0.0000E+000
398.00,0.0000E+000
398.50,0.0000E+000
399.00,0.0000E+000
399.50,0.0000E+000
400.00,0.0000E+000
400.50,2.3304E-006
401.00,7.5512E-006
401.50,4.2154E-006
402.00,0.0000E+000
402.50,0.0000E+000
403.00,0.0000E+000
403.50,0.0000E+000
404.00,0.0000E+000
404.50,0.0000E+000
405.00,0.0000E+000
405.50,0.0000E+000
406.00,0.0000E+000
406.50,0.0000E+000
407.00,0.0000E+000
407.50,0.0000E+000
408.00,0.0000E+000
408.50,3.2455E-006
409.00,1.8888E-005
409.50,2.3334E-006
410.00,0.0000E+000
410.50,0.0000E+000
411.00,0.0000E+000
411.50,0.0000E+000
412.00,0.0000E+000
412.50,0.0000E+000
413.00,0.0000E+000
413.50,0.0000E+000
414.00,0.0000E+000
414.50,0.0000E+000
415.00,0.0000E+000
415.50,0.0000E+000
416.00,0.0000E+000
416.50,0.0000E+000
417.00,0.0000E+000
417.50,0.0000E+000
418.00,0.0000E+000
418.50,0.0000E+000
419.00,0.0000E+000
419.50,0.0000E+000
420.00,0.0000E+000
420.50,0.0000E+000
421.00,0.0000E+000
421.50,0.0000E+000
422.00,0.0000E+000
422.50,0.0000E+000
423.00,0.0000E+000
423.50,0.0000E+000
424.00,0.0000E+000
424.50,3.0574E-006
425.00,1.6840E-005
425.50,1.7149E-005
426.00,8.3914E-006
426.50,1.1151E-006
427.00,0.0000E+000
427.50,0.0000E+000
428.00,0.0000E+000
428.50,0.0000E+000
429.00,0.0000E+000
429.50,0.0000E+000
430.00,0.0000E+000
430.50,0.0000E+000
431.00,0.0000E+000
431.50,0.0000E+000
432.00,0.0000E+000
432.50,0.0000E+000
433.00,0.0000E+000
433.50,0.0000E+000
434.00,0.0000E+000
434.50,0.0000E+000
435.00,0.0000E+000
435.50,0.0000E+000
436.00,0.0000E+000
436.50,0.0000E+000
437.00,0.0000E+000
437.50,0.0000E+000
438.00,0.0000E+000
438.50,0.0000E+000
439.00,0.0000E+000
439.50,0.0000E+000
440.00,0.0000E+000
440.50,0.0000E+000
441.00,0.0000E+000
441.50,0.0000E+000
442.00,0.0000E+000
442.50,0.0000E+000
443.00,0.0000E+000
443.50,0.0000E+000
444.00,0.0000E+000
444.50,0.0000E+000
445.00,0.0000E+000
445.50,0.0000E+000
446.00,5.5790E-007
446.50,0.0000E+000
447.00,0.0000E+000
447.50,0.0000E+000
448.00,0.0000E+000
448.50,0.0000E+000
449.00,0.0000E+000
449.50,0.0000E+000
450.00,0.0000E+000
450.50,0.0000E+000
451.00,6.5501E-008
451.50,7.7214E-006
452.00,2.3474E-005
452.50,2.7231E-005
453.00,2.8001E-005
453.50,9.7812E-006
454.00,0.0000E+000
454.50,0.0000E+000
455.00,0.0000E+000
455.50,0.0000E+000
456.00,0.0000E+000
456.50,0.0000E+000
457.00,0.0000E+000
457.50,0.0000E+000
458.00,0.0000E+000
458.50,0.0000E+000
459.00,0.0000E+000
459.50,0.0000E+000
460.00,0.0000E+000
460.50,0.0000E+000
461.00,0.0000E+000
461.50,0.0000E+000
462.00,0.0000E+000
462.50,0.0000E+000
463.00,9.9126E-007
463.50,0.0000E+000
464.00,0.0000E+000
464.50,0.0000E+000
465.00,0.0000E+000
465.50,1.2293E-006
466.00,3.3249E-006
466.50,5.5020E-006
467.00,1.4155E-006
467.50,0.0000E+000
468.00,0.0000E+000
468.50,0.0000E+000
469.00,0.0000E+000
469.50,0.0000E+000
470.00,0.0000E+000
470.50,0.0000E+000
471.00,0.0000E+000
471.50,0.0000E+000
472.00,0.0000E+000
472.50,0.0000E+000
473.00,0.0000E+000
473.50,0.0000E+000
474.00,0.0000E+000
474.50,0.0000E+000
475.00,0.0000E+000
475.50,0.0000E+000
476.00,0.0000E+000
476.50,0.0000E+000
477.00,0.0000E+000
477.50,0.0000E+000
478.00,0.0000E+000
478.50,0.0000E+000
479.00,0.0000E+000
479.50,0.0000E+000
480.00,0.0000E+000
480.50,0.0000E+000
481.00,0.0000E+000
481.50,0.0000E+000
482.00,0.0000E+000
482.50,0.0000E+000
483.00,0.0000E+000
483.50,0.0000E+000
484.00,0.0000E+000
484.50,0.0000E+000
485.00,0.0000E+000
485.50,0.0000E+000
486.00,0.0000E+000
486.50,0.0000E+000
487.00,0.0000E+000
487.50,0.0000E+000
488.00,0.0000E+000
488.50,0.0000E+000
489.00,0.0000E+000
489.50,0.0000E+000
490.00,0.0000E+000
490.50,1.3955E-008
491.00,4.6242E-006
491.50,1.3738E-006
492.00,0.0000E+000
492.50,0.0000E+000
493.00,0.0000E+000
493.50,0.0000E+000
494.00,0.0000E+000
494.50,0.0000E+000
495.00,0.0000E+000
495.50,0.0000E+000
496.00,0.0000E+000
496.50,0.0000E+000
497.00,0.0000E+000
497.50,0.0000E+000
498.00,0.0000E+000
498.50,0.0000E+000
499.00,0.0000E+000
499.50,0.0000E+000
500.00,0.0000E+000
500.50,0.0000E+000
501.00,0.0000E+000
501.50,0.0000E+000
502.00,0.0000E+000
502.50,0.0000E+000
503.00,0.0000E+000
503.50,0.0000E+000
504.00,0.0000E+000
504.50,0.0000E+000
505.00,3.2825E-007
505.50,2.4703E-006
506.00,1.5872E-006
506.50,0.0000E+000
507.00,4.4201E-007
507.50,1.6310E-006
508.00,3.4870E-006
508.50,8.0949E-008
509.00,0.0000E+000
509.50,0.0000E+000
510.00,0.0000E+000
510.50,3.0297E-006
511.00,3.7357E-006
511.50,2.5641E-007
512.00,0.0000E+000
512.50,0.0000E+000
513.00,0.0000E+000
513.50,0.0000E+000
514.00,7.9399E-007
514.50,5.1498E-006
515.00,2.2028E-006
515.50,0.0000E+000
516.00,0.0000E+000
516.50,0.0000E+000
517.00,0.0000E+000
517.50,0.0000E+000
518.00,0.0000E+000
518.50,0.0000E+000
519.00,0.0000E+000
519.50,0.0000E+000
520.00,0.0000E+000
520.50,0.0000E+000
521.00,0.0000E+000
521.50,0.0000E+000
522.00,0.0000E+000
522.50,0.0000E+000
523.00,0.0000E+000
523.50,0.0000E+000
524.00,0.0000E+000
524.50,0.0000E+000
525.00,0.0000E+000
525.50,0.0000E+000
526.00,0.0000E+000
526.50,0.0000E+000
527.00,0.0000E+000
527.50,0.0000E+000
528.00,0.0000E+000
528.50,0.0000E+000
529.00,0.0000E+000
529.50,0.0000E+000
530.00,0.0000E+000
530.50,1.2114E-006
531.00,1.3738E-005
531.50,1.9661E-005
532.00,1.0520E-005
532.50,7.8936E-007
533.00,0.0000E+000
533.50,0.0000E+000
534.00,0.0000E+000
534.50,0.0000E+000
535.00,0.0000E+000
535.50,0.0000E+000
536.00,0.0000E+000
536.50,0.0000E+000
537.00,0.0000E+000
537.50,0.0000E+000
538.00,0.0000E+000
538.50,0.0000E+000
539.00,0.0000E+000
539.50,3.8165E-006
540.00,3.4402E-006
540.50,2.9583E-007
541.00,0.0000E+000
541.50,0.0000E+000
542.00,0.0000E+000
542.50,0.0000E+000
543.00,0.0000E+000
543.50,0.0000E+000
544.00,0.0000E+000
544.50,0.0000E+000
545.00,0.0000E+000
545.50,0.0000E+000
546.00,0.0000E+000
546.50,0.0000E+000
547.00,0.0000E+000
547.50,0.0000E+000
548.00,0.0000E+000
548.50,0.0000E+000
549.00,0.0000E+000
549.50,0.0000E+000
550.00,0.0000E+000
550.50,0.0000E+000
551.00,0.0000E+000
551.50,0.0000E+000
552.00,0.0000E+000
552.50,0.0000E+000
553.00,0.0000E+000
553.50,0.0000E+000
554.00,0.0000E+000
554.50,0.0000E+000
555.00,0.0000E+000
555.50,0.0000E+000
556.00,0.0000E+000
556.50,0.0000E+000
557.00,0.0000E+000
557.50,6.9627E-007
558.00,3.4672E-006
558.50,2.0516E-006
559.00,0.0000E+000
559.50,0.0000E+000
560.00,0.0000E+000
560.50,0.0000E+000
561.00,0.0000E+000
561.50,0.0000E+000
562.00,0.0000E+000
562.50,0.0000E+000
563.00,0.0000E+000
563.50,0.0000E+000
564.00,0.0000E+000
564.50,3.6865E-007
565.00,3.0514E-006
565.50,3.2637E-006
566.00,3.7858E-007
566.50,0.0000E+000
567.00,0.0000E+000
567.50,0.0000E+000
568.00,0.0000E+000
568.50,0.0000E+000
569.00,0.0000E+000
569.50,0.0000E+000
570.00,0.0000E+000
570.50,0.0000E+000
571.00,0.0000E+000
571.50,4.9771E-006
572.00,2.8570E-006
572.50,0.0000E+000
573.00,0.0000E+000
573.50,0.0000E+000
574.00,0.0000E+000
574.50,0.0000E+000
575.00,0.0000E+000
575.50,0.0000E+000
576.00,0.0000E+000
576.50,0.0000E+000
577.00,0.0000E+000
577.50,0.0000E+000
578.00,0.0000E+000
578.50,0.0000E+000
579.00,0.0000E+000
579.50,0.0000E+000
580.00,0.0000E+000
580.50,0.0000E+000
581.00,0.0000E+000
581.50,0.0000E+000
582.00,0.0000E+000
582.50,0.0000E+000
583.00,3.5016E-006
583.50,1.0239E-005
584.00,8.2699E-006
584.50,2.3150E-006
585.00,2.7336E-006
585.50,7.5153E-006
586.00,1.2776E-005
586.50,6.2049E-006
587.00,0.0000E+000
587.50,0.0000E+000
588.00,0.0000E+000
588.50,0.0000E+000
589.00,0.0000E+000
589.50,0.0000E+000
590.00,0.0000E+000
590.50,0.0000E+000
591.00,0.0000E+000
591.50,0.0000E+000
592.00,0.0000E+000
592.50,0.0000E+000
593.00,0.0000E+000
593.50,0.0000E+000
594.00,1.4809E-006
594.50,3.2718E-006
595.00,0.0000E+000
595.50,0.0000E+000
596.00,0.0000E+000
596.50,0.0000E+000
597.00,0.0000E+000
597.50,0.0000E+000
598.00,0.0000E+000
598.50,0.0000E+000
599.00,0.0000E+000
599.50,0.0000E+000
600.00,0.0000E+000
600.50,0.0000E+000
601.00,0.0000E+000
601.50,0.0000E+000
602.00,0.0000E+000
602.50,0.0000E+000
603.00,0.0000E+000
603.50,0.0000E+000
604.00,0.0000E+000
604.50,0.0000E+000
605.00,0.0000E+000
605.50,3.9290E-007
606.00,9.0732E-006
606.50,4.9514E-006
607.00,5.8382E-006
607.50,1.6320E-006
608.00,3.9841E-006
608.50,2.0978E-006
609.00,8.6295E-007
609.50,0.0000E+000
610.00,0.0000E+000
610.50,0.0000E+000
611.00,0.0000E+000
611.50,0.0000E+000
612.00,0.0000E+000
612.50,0.0000E+000
613.00,2.5520E-007
613.50,0.0000E+000
614.00,0.0000E+000
614.50,7.2140E-007
615.00,5.8929E-006
615.50,1.7951E-005
616.00,1.6352E-006
616.50,0.0000E+000
617.00,0.0000E+000
617.50,0.0000E+000
618.00,0.0000E+000
618.50,0.0000E+000
619.00,0.0000E+000
619.50,0.0000E+000
620.00,0.0000E+000
620.50,5.5971E-006
621.00,1.1064E-005
621.50,7.0132E-006
622.00,3.0971E-006
622.50,2.6188E-006
623.00,2.2061E-007
623.50,0.0000E+000
624.00,3.2266E-006
624.50,1.1585E-005
625.00,1.3573E-005
625.50,1.0536E-005
626.00,9.5744E-006
626.50,8.7539E-006
627.00,4.7403E-007
627.50,0.0000E+000
628.00,0.0000E+000
628.50,0.0000E+000
629.00,0.0000E+000
629.50,0.0000E+000
630.00,0.0000E+000
630.50,0.0000E+000
631.00,0.0000E+000
631.50,1.2012E-005
632.00,1.8949E-005
632.50,2.9882E-005
633.00,3.1320E-005
633.50,3.4491E-005
634.00,4.0274E-005
634.50,4.6586E-005
635.00,4.9840E-005
635.50,5.1421E-005
636.00,3.9192E-005
636.50,2.8074E-005
637.00,3.3387E-006
637.50,2.5165E-006
638.00,3.4428E-006
638.50,2.2505E-005
639.00,3.0182E-005
639.50,1.8994E-005
640.00,9.5669E-006
640.50,3.2079E-006
641.00,8.9769E-006
641.50,1.2924E-005
642.00,0.0000E+000
642.50,0.0000E+000
643.00,0.0000E+000
643.50,0.0000E+000
644.00,0.0000E+000
644.50,0.0000E+000
645.00,0.0000E+000
645.50,2.1361E-005
646.00,2.9940E-005
646.50,1.8997E-005
647.00,1.2427E-006
647.50,0.0000E+000
648.00,0.0000E+000
648.50,0.0000E+000
649.00,0.0000E+000
649.50,0.0000E+000
650.00,0.0000E+000
650.50,0.0000E+000
651.00,0.0000E+000
651.50,0.0000E+000
652.00,0.0000E+000
652.50,0.0000E+000
653.00,0.0000E+000
653.50,0.0000E+000
654.00,0.0000E+000
654.50,0.0000E+000
655.00,0.0000E+000
655.50,0.0000E+000
656.00,6.0199E-007
656.50,5.7274E-006
657.00,2.1719E-005
657.50,3.1291E-005
658.00,3.6528E-005
658.50,3.9483E-005
659.00,4.3796E-005
659.50,7.2000E-005
660.00,1.4431E-004
660.50,2.5736E-004
661.00,3.6145E-004
661.50,3.8431E-004
662.00,3.2109E-004
662.50,2.1420E-004
663.00,1.3344E-004
663.50,8.6167E-005
664.00,5.3269E-005
664.50,2.1875E-005
665.00,5.5112E-006
665.50,7.7589E-006
666.00,1.3216E-005
666.50,1.5487E-005
667.00,3.7718E-007
667.50,0.0000E+000
668.00,0.0000E+000
668.50,0.0000E+000
669.00,0.0000E+000
669.50,0.0000E+000
670.00,5.7902E-006
670.50,1.7875E-006
671.00,0.0000E+000
671.50,0.0000E+000
672.00,0.0000E+000
672.50,0.0000E+000
673.00,0.0000E+000
673.50,0.0000E+000
674.00,0.0000E+000
674.50,9.8483E-006
675.00,3.5640E-005
675.50,7.1068E-005
676.00,1.0985E-004
676.50,1.2027E-004
677.00,8.1583E-005
677.50,1.5610E-005
678.00,0.0000E+000
678.50,0.0000E+000
679.00,3.8607E-006
679.50,3.6932E-006
680.00,0.0000E+000
680.50,0.0000E+000
681.00,0.0000E+000
681.50,0.0000E+000
682.00,0.0000E+000
682.50,0.0000E+000
683.00,0.0000E+000
683.50,0.0000E+000
684.00,3.8548E-006
684.50,0.0000E+000
685.00,0.0000E+000
685.50,0.0000E+000
686.00,0.0000E+000
686.50,1.1557E-007
687.00,3.0866E-007
687.50,0.0000E+000
688.00,0.0000E+000
688.50,0.0000E+000
689.00,0.0000E+000
689.50,0.0000E+000
690.00,0.0000E+000
690.50,0.0000E+000
691.00,0.0000E+000
691.50,0.0000E+000
692.00,0.0000E+000
692.50,0.0000E+000
693.00,1.7619E-005
693.50,1.3828E-005
694.00,6.3019E-007
694.50,0.0000E+000
695.00,0.0000E+000
695.50,0.0000E+000
696.00,8.9505E-006
696.50,1.0018E-005
697.00,0.0000E+000
697.50,0.0000E+000
698.00,0.0000E+000
698.50,0.0000E+000
699.00,0.0000E+000
699.50,0.0000E+000
700.00,0.0000E+000
700.50,4.6326E-007
701.00,0.0000E+000
701.50,0.0000E+000
702.00,1.1221E-005
702.50,7.7223E-005
703.00,1.7198E-004
703.50,1.8002E-004
704.00,1.2549E-004
704.50,4.7524E-005
705.00,2.5281E-005
705.50,2.2139E-005
706.00,2.3496E-005
706.50,1.3446E-005
707.00,7.0751E-006
707.50,6.0450E-006
708.00,1.0432E-005
708.50,8.9197E-006
709.00,1.7932E-005
709.50,3.5647E-005
710.00,5.2447E-005
710.50,4.3079E-005
711.00,2.4497E-005
711.50,1.8651E-005
712.00,1.0942E-005
712.50,1.2075E-005
713.00,1.3930E-005
713.50,4.5711E-005
714.00,7.8789E-005
714.50,8.0624E-005
715.00,4.7014E-005
715.50,3.1821E-005
716.00,6.3835E-005
716.50,1.0616E-004
717.00,1.3540E-004
717.50,1.2535E-004
718.00,1.1783E-004
718.50,1.0290E-004
719.00,1.1469E-004
719.50,1.5914E-004
720.00,2.6061E-004
720.50,4.0623E-004
721.00,6.3496E-004
721.50,1.0318E-003
722.00,1.6692E-003
722.50,2.4184E-003
723.00,2.8700E-003
723.50,2.6806E-003
724.00,1.9555E-003
724.50,1.1971E-003
725.00,6.9972E-004
725.50,4.5715E-004
726.00,3.6149E-004
726.50,3.1001E-004
727.00,2.7749E-004
727.50,2.6747E-004
728.00,2.3049E-004
728.50,2.2107E-004
729.00,2.2244E-004
729.50,2.4972E-004
730.00,2.8462E-004
730.50,2.9126E-004
731.00,3.1691E-004
731.50,3.3065E-004
732.00,3.6046E-004
732.50,3.6729E-004
733.00,3.9265E-004
733.50,4.5142E-004
734.00,5.2583E-004
734.50,5.8596E-004
735.00,6.6145E-004
735.50,7.7578E-004
736.00,9.3709E-004
736.50,1.0805E-003
737.00,1.2621E-003
737.50,1.5160E-003
738.00,1.8154E-003
738.50,1.9650E-003
739.00,1.8473E-003
739.50,1.4572E-003
740.00,9.0580E-004
740.50,4.4473E-004
741.00,2.0734E-004
741.50,2.2393E-004
742.00,4.0921E-004
742.50,7.4017E-004
743.00,1.1203E-003
743.50,1.4961E-003
744.00,1.7795E-003
744.50,1.9739E-003
745.00,2.0709E-003
745.50,2.1055E-003
746.00,2.1083E-003
746.50,2.0888E-003
747.00,2.0218E-003
747.50,1.9296E-003
748.00,1.8034E-003
748.50,1.7480E-003
749.00,1.7444E-003
749.50,1.7328E-003
750.00,1.6579E-003
750.50,1.5631E-003
751.00,1.4833E-003
751.50,1.4290E-003
752.00,1.3794E-003
752.50,1.3096E-003
753.00,1.2412E-003
753.50,1.1837E-003
754.00,1.2008E-003
754.50,1.1683E-003
755.00,1.1342E-003
755.50,1.0588E-003
756.00,1.0251E-003
756.50,1.0119E-003
757.00,9.8850E-004
757.50,9.2509E-004
758.00,8.8615E-004
758.50,8.4647E-004
759.00,8.1219E-004
759.50,7.6681E-004
760.00,8.0209E-004
760.50,8.0435E-004
761.00,7.6058E-004
761.50,7.0784E-004
762.00,7.0454E-004
762.50,7.2588E-004
763.00,8.4834E-004
763.50,1.1028E-003
764.00,1.3386E-003
764.50,1.3028E-003
765.00,1.0399E-003
765.50,7.5580E-004
766.00,5.8998E-004
766.50,5.1324E-004
767.00,5.2496E-004
767.50,5.5026E-004
768.00,5.8790E-004
768.50,5.6054E-004
769.00,5.3910E-004
769.50,4.9239E-004
770.00,4.5696E-004
770.50,3.8235E-004
771.00,3.5460E-004
771.50,3.7464E-004
772.00,4.1275E-004
772.50,4.0463E-004
773.00,3.9813E-004
773.50,4.0209E-004
774.00,4.2047E-004
774.50,3.7865E-004
775.00,3.1624E-004
775.50,2.7512E-004
776.00,2.9718E-004
776.50,3.3866E-004
777.00,3.6319E-004
777.50,3.7176E-004
778.00,3.4864E-004
778.50,3.0659E-004
779.00,2.9473E-004
779.50,3.0349E-004
780.00,3.4634E-004
780.50,3.2051E-004
781.00,2.6668E-004
781.50,2.1075E-004
782.00,2.5371E-004
782.50,3.2448E-004
783.00,3.8495E-004
783.50,3.7019E-004
784.00,3.3581E-004
784.50,3.1608E-004
785.00,3.0561E-004
785.50,3.1253E-004
786.00,2.8839E-004
786.50,2.3981E-004
787.00,2.2790E-004
787.50,2.5835E-004
788.00,2.8214E-004
788.50,3.1217E-004
789.00,3.2133E-004
789.50,2.9307E-004
790.00,2.6128E-004
790.50,2.8380E-004
791.00,3.2551E-004
791.50,2.8772E-004
792.00,2.0050E-004
792.50,2.2702E-004
793.00,2.2073E-004
793.50,2.3048E-004
794.00,1.9798E-004
794.50,2.3726E-004
795.00,2.2860E-004
795.50,2.5903E-004
796.00,2.8311E-004
796.50,2.4362E-004
797.00,1.4627E-004
797.50,1.3847E-004
798.00,2.0675E-004
798.50,2.9050E-004
799.00,2.7085E-004
799.50,2.3049E-004
800.00,1.5273E-004
800.50,9.3921E-005
801.00,6.7966E-005
801.50,1.0396E-004
802.00,1.4822E-004
802.50,1.8841E-004
803.00,1.7420E-004
803.50,8.1423E-005
804.00,0.0000E+000
804.50,7.0349E-006
805.00,7.1672E-005
805.50,1.2679E-004
806.00,2.1695E-004
806.50,2.0293E-004
807.00,1.9227E-004
807.50,1.6977E-004
808.00,2.0124E-004
808.50,1.9705E-004
809.00,2.0854E-004
809.50,1.7702E-004
810.00,1.5067E-004
810.50,1.7670E-004
811.00,1.8342E-004
811.50,1.4459E-004
812.00,1.0959E-004
812.50,1.5653E-004
813.00,2.0337E-004
813.50,2.1042E-004
814.00,1.4927E-004
814.50,1.4016E-004
815.00,1.9692E-004
815.50,1.6174E-004
816.00,1.0492E-004
816.50,9.8972E-005
817.00,1.7282E-004
817.50,2.1826E-004
818.00,1.4618E-004
818.50,5.2312E-005
819.00,5.2044E-005
819.50,9.9283E-005
820.00,1.0093E-004
820.50,4.3905E-005
821.00,2.7215E-005
821.50,9.9962E-005
822.00,1.3045E-004
822.50,1.0171E-004
823.00,2.4898E-005
823.50,0.0000E+000
824.00,1.8277E-005
824.50,1.9160E-006
825.00,0.0000E+000
825.50,0.0000E+000
826.00,0.0000E+000
826.50,0.0000E+000
827.00,2.8542E-005
827.50,7.5141E-005
828.00,6.9999E-005
828.50,1.6141E-004
829.00,1.3455E-004
829.50,1.1760E-004
830.00,1.1179E-004
830.50,1.5621E-004
831.00,4.4941E-005
831.50,3.3483E-005
832.00,1.1944E-005
832.50,0.0000E+000
833.00,0.0000E+000
833.50,5.4870E-005
834.00,9.2700E-005
834.50,1.7356E-005
835.00,0.0000E+000
835.50,0.0000E+000
836.00,0.0000E+000
836.50,0.0000E+000
837.00,0.0000E+000
837.50,0.0000E+000
838.00,0.0000E+000
838.50,8.6554E-005
839.00,1.3052E-004
839.50,8.0014E-005
840.00,4.0919E-005
840.50,1.4133E-004
841.00,1.0454E-004
841.50,0.0000E+000
842.00,0.0000E+000
842.50,0.0000E+000
843.00,0.0000E+000
843.50,9.6838E-006
844.00,8.0727E-005
844.50,8.8041E-005
845.00,9.5023E-005
845.50,4.3059E-005
846.00,4.3494E-005
846.50,0.0000E+000
847.00,0.0000E+000
847.50,0.0000E+000
848.00,0.0000E+000
848.50,0.0000E+000
849.00,1.9281E-006
849.50,0.0000E+000
850.00,0.0000E+000
850.50,1.3719E-004
851.00,5.6168E-005
851.50,0.0000E+000
852.00,0.0000E+000
852.50,0.0000E+000
853.00,0.0000E+000
853.50,0.0000E+000
854.00,0.0000E+000
854.50,0.0000E+000
855.00,0.0000E+000
855.50,0.0000E+000
856.00,2.4186E-006
856.50,0.0000E+000
857.00,0.0000E+000
857.50,0.0000E+000
858.00,0.0000E+000
858.50,0.0000E+000
859.00,0.0000E+000
859.50,0.0000E+000
860.00,0.0000E+000
860.50,0.0000E+000
861.00,0.0000E+000
861.50,0.0000E+000
862.00,0.0000E+000
862.50,0.0000E+000
863.00,0.0000E+000
863.50,0.0000E+000
864.00,0.0000E+000
864.50,1.1790E-005
865.00,1.6385E-004
865.50,1.7997E-004
866.00,6.2774E-005
866.50,0.0000E+000
867.00,0.0000E+000
867.50,0.0000E+000
868.00,2.2935E-007
868.50,0.0000E+000
869.00,0.0000E+000
869.50,0.0000E+000
870.00,0.0000E+000
870.50,0.0000E+000
871.00,0.0000E+000
871.50,0.0000E+000
872.00,0.0000E+000
872.50,0.0000E+000
873.00,9.9979E-005
873.50,2.4139E-005
874.00,0.0000E+000
874.50,0.0000E+000
875.00,0.0000E+000
875.50,0.0000E+000
876.00,0.0000E+000
876.50,0.0000E+000
877.00,0.0000E+000
877.50,4.5872E-005
878.00,2.2458E-004
878.50,2.2218E-004
879.00,2.1533E-005
879.50,0.0000E+000
880.00,0.0000E+000
880.50,0.0000E+000
881.00,0.0000E+000
881.50,0.0000E+000
882.00,0.0000E+000
882.50,0.0000E+000
883.00,0.0000E+000
883.50,0.0000E+000
884.00,0.0000E+000
884.50,0.0000E+000
885.00,0.0000E+000
885.50,7.3478E-005
886.00,2.2414E-004
886.50,1.1327E-004
887.00,6.9456E-007
887.50,9.1635E-005
888.00,9.3997E-005
888.50,0.0000E+000
889.00,0.0000E+000
889.50,0.0000E+000
890.00,0.0000E+000
890.50,0.0000E+000
891.00,6.6161E-006
891.50,5.8882E-005
892.00,2.1574E-004
892.50,2.1638E-004
893.00,1.3246E-004
893.50,9.5242E-005
894.00,6.3721E-006
894.50,0.0000E+000
895.00,0.0000E+000
895.50,2.4140E-005
896.00,2.5038E-004
896.50,2.5553E-004
897.00,7.7685E-005
897.50,0.0000E+000
898.00,0.0000E+000
898.50,0.0000E+000
899.00,0.0000E+000
899.50,0.0000E+000
:5
