wavelength,relativeIntensity
 273.00,0.0000E+000
 273.50,0.0000E+000
 274.00,0.0000E+000
 274.50,0.0000E+000
 275.00,0.0000E+000
 275.50,0.0000E+000
 276.00,0.0000E+000
 276.50,0.0000E+000
 277.00,0.0000E+000
 277.50,0.0000E+000
 278.00,0.0000E+000
 278.50,0.0000E+000
 279.00,0.0000E+000
 279.50,0.0000E+000
 280.00,0.0000E+000
 280.50,0.0000E+000
 281.00,0.0000E+000
 281.50,0.0000E+000
 282.00,0.0000E+000
 282.50,0.0000E+000
 283.00,0.0000E+000
 283.50,0.0000E+000
 284.00,0.0000E+000
 284.50,0.0000E+000
 285.00,0.0000E+000
 285.50,0.0000E+000
 286.00,0.0000E+000
 286.50,0.0000E+000
 287.00,0.0000E+000
 287.50,0.0000E+000
 288.00,0.0000E+000
 288.50,0.0000E+000
 289.00,0.0000E+000
 289.50,0.0000E+000
 290.00,0.0000E+000
 290.50,0.0000E+000
 291.00,0.0000E+000
 291.50,0.0000E+000
 292.00,0.0000E+000
 292.50,0.0000E+000
 293.00,0.0000E+000
 293.50,0.0000E+000
 294.00,0.0000E+000
 294.50,0.0000E+000
 295.00,0.0000E+000
 295.50,0.0000E+000
 296.00,0.0000E+000
 296.50,0.0000E+000
 297.00,0.0000E+000
 297.50,0.0000E+000
 298.00,0.0000E+000
 298.50,0.0000E+000
 299.00,0.0000E+000
 299.50,0.0000E+000
 300.00,0.0000E+000
 300.50,0.0000E+000
 301.00,0.0000E+000
 301.50,0.0000E+000
 302.00,0.0000E+000
 302.50,0.0000E+000
 303.00,1.8972E-005
 303.50,1.7777E-005
 304.00,2.8555E-006
 304.50,0.0000E+000
 305.00,0.0000E+000
 305.50,0.0000E+000
 306.00,0.0000E+000
 306.50,0.0000E+000
 307.00,0.0000E+000
 307.50,0.0000E+000
 308.00,0.0000E+000
 308.50,0.0000E+000
 309.00,0.0000E+000
 309.50,0.0000E+000
 310.00,0.0000E+000
 310.50,0.0000E+000
 311.00,0.0000E+000
 311.50,0.0000E+000
 312.00,1.4250E-005
 312.50,4.3902E-005
 313.00,5.6376E-005
 313.50,1.6160E-005
 314.00,0.0000E+000
 314.50,0.0000E+000
 315.00,0.0000E+000
 315.50,0.0000E+000
 316.00,0.0000E+000
 316.50,0.0000E+000
 317.00,0.0000E+000
 317.50,0.0000E+000
 318.00,0.0000E+000
 318.50,0.0000E+000
 319.00,0.0000E+000
 319.50,0.0000E+000
 320.00,0.0000E+000
 320.50,0.0000E+000
 321.00,0.0000E+000
 321.50,0.0000E+000
 322.00,0.0000E+000
 322.50,0.0000E+000
 323.00,0.0000E+000
 323.50,0.0000E+000
 324.00,0.0000E+000
 324.50,0.0000E+000
 325.00,5.6266E-007
 325.50,0.0000E+000
 326.00,0.0000E+000
 326.50,0.0000E+000
 327.00,0.0000E+000
 327.50,0.0000E+000
 328.00,0.0000E+000
 328.50,0.0000E+000
 329.00,0.0000E+000
 329.50,0.0000E+000
 330.00,0.0000E+000
 330.50,0.0000E+000
 331.00,0.0000E+000
 331.50,0.0000E+000
 332.00,0.0000E+000
 332.50,0.0000E+000
 333.00,0.0000E+000
 333.50,0.0000E+000
 334.00,0.0000E+000
 334.50,0.0000E+000
 335.00,0.0000E+000
 335.50,0.0000E+000
 336.00,0.0000E+000
 336.50,0.0000E+000
 337.00,0.0000E+000
 337.50,0.0000E+000
 338.00,0.0000E+000
 338.50,0.0000E+000
 339.00,0.0000E+000
 339.50,0.0000E+000
 340.00,0.0000E+000
 340.50,0.0000E+000
 341.00,0.0000E+000
 341.50,0.0000E+000
 342.00,0.0000E+000
 342.50,0.0000E+000
 343.00,0.0000E+000
 343.50,0.0000E+000
 344.00,0.0000E+000
 344.50,0.0000E+000
 345.00,0.0000E+000
 345.50,0.0000E+000
 346.00,0.0000E+000
 346.50,0.0000E+000
 347.00,0.0000E+000
 347.50,0.0000E+000
 348.00,0.0000E+000
 348.50,0.0000E+000
 349.00,0.0000E+000
 349.50,0.0000E+000
 350.00,0.0000E+000
 350.50,0.0000E+000
 351.00,0.0000E+000
 351.50,0.0000E+000
 352.00,0.0000E+000
 352.50,0.0000E+000
 353.00,1.1044E-005
 353.50,5.4968E-005
 354.00,5.4135E-005
 354.50,2.7784E-005
 355.00,4.1248E-006
 355.50,0.0000E+000
 356.00,0.0000E+000
 356.50,0.0000E+000
 357.00,0.0000E+000
 357.50,0.0000E+000
 358.00,0.0000E+000
 358.50,0.0000E+000
 359.00,0.0000E+000
 359.50,0.0000E+000
 360.00,0.0000E+000
 360.50,6.3732E-006
 361.00,4.6867E-006
 361.50,3.8744E-005
 362.00,5.3945E-005
 362.50,1.1201E-005
 363.00,0.0000E+000
 363.50,0.0000E+000
 364.00,0.0000E+000
 364.50,1.6827E-005
 365.00,9.5911E-006
 365.50,1.6065E-005
 366.00,1.9273E-005
 366.50,5.6439E-005
 367.00,9.2944E-005
 367.50,9.6233E-005
 368.00,1.0352E-004
 368.50,5.4788E-005
 369.00,4.5095E-005
 369.50,6.8953E-006
 370.00,0.0000E+000
 370.50,3.5360E-007
 371.00,1.8976E-005
 371.50,6.7548E-005
 372.00,1.2748E-004
 372.50,1.5833E-004
 373.00,1.6687E-004
 373.50,1.3923E-004
 374.00,6.7129E-005
 374.50,1.7533E-005
 375.00,0.0000E+000
 375.50,5.1407E-006
 376.00,7.9310E-005
 376.50,9.6551E-005
 377.00,9.4152E-005
 377.50,3.4357E-005
 378.00,1.1300E-007
 378.50,8.1242E-006
 379.00,1.3002E-005
 379.50,0.0000E+000
 380.00,0.0000E+000
 380.50,0.0000E+000
 381.00,2.4278E-006
 381.50,6.4884E-005
 382.00,1.3910E-004
 382.50,1.8930E-004
 383.00,1.5736E-004
 383.50,1.1043E-004
 384.00,3.8868E-005
 384.50,2.6541E-005
 385.00,2.8414E-005
 385.50,8.1931E-005
 386.00,1.3160E-004
 386.50,1.5405E-004
 387.00,1.8069E-004
 387.50,1.6386E-004
 388.00,1.0190E-004
 388.50,4.1366E-005
 389.00,3.4402E-005
 389.50,2.1062E-005
 390.00,6.4402E-005
 390.50,5.9528E-005
 391.00,9.2533E-005
 391.50,1.4406E-004
 392.00,1.9153E-004
 392.50,2.2387E-004
 393.00,1.9100E-004
 393.50,1.3971E-004
 394.00,1.0835E-004
 394.50,8.2786E-005
 395.00,1.2569E-004
 395.50,1.7061E-004
 396.00,2.3023E-004
 396.50,2.4507E-004
 397.00,2.1920E-004
 397.50,2.2290E-004
 398.00,2.9552E-004
 398.50,3.6271E-004
 399.00,3.7163E-004
 399.50,3.5413E-004
 400.00,2.9257E-004
 400.50,3.1541E-004
 401.00,3.7466E-004
 401.50,3.8841E-004
 402.00,4.0332E-004
 402.50,4.0017E-004
 403.00,4.1046E-004
 403.50,4.6629E-004
 404.00,5.0718E-004
 404.50,5.4458E-004
 405.00,5.4504E-004
 405.50,5.8260E-004
 406.00,6.3045E-004
 406.50,7.1847E-004
 407.00,8.3207E-004
 407.50,9.1861E-004
 408.00,1.0146E-003
 408.50,1.0613E-003
 409.00,1.1062E-003
 409.50,1.1974E-003
 410.00,1.3376E-003
 410.50,1.5257E-003
 411.00,1.6834E-003
 411.50,1.8170E-003
 412.00,1.9158E-003
 412.50,1.9826E-003
 413.00,2.1123E-003
 413.50,2.2811E-003
 414.00,2.5307E-003
 414.50,2.7462E-003
 415.00,2.9571E-003
 415.50,3.2009E-003
 416.00,3.4792E-003
 416.50,3.8268E-003
 417.00,4.2080E-003
 417.50,4.5889E-003
 418.00,4.9803E-003
 418.50,5.3553E-003
 419.00,5.7357E-003
 419.50,6.2189E-003
 420.00,6.7523E-003
 420.50,7.3705E-003
 421.00,7.9122E-003
 421.50,8.4376E-003
 422.00,8.9999E-003
 422.50,9.6301E-003
 423.00,1.0371E-002
 423.50,1.1107E-002
 424.00,1.1855E-002
 424.50,1.2620E-002
 425.00,1.3436E-002
 425.50,1.4348E-002
 426.00,1.5321E-002
 426.50,1.6321E-002
 427.00,1.7407E-002
 427.50,1.8504E-002
 428.00,1.9672E-002
 428.50,2.0835E-002
 429.00,2.2034E-002
 429.50,2.3254E-002
 430.00,2.4469E-002
 430.50,2.5627E-002
 431.00,2.6738E-002
 431.50,2.7834E-002
 432.00,2.8958E-002
 432.50,3.0272E-002
 433.00,3.1588E-002
 433.50,3.2753E-002
 434.00,3.3819E-002
 434.50,3.4784E-002
 435.00,3.5916E-002
 435.50,3.7111E-002
 436.00,3.8276E-002
 436.50,3.9334E-002
 437.00,4.0453E-002
 437.50,4.1513E-002
 438.00,4.2568E-002
 438.50,4.3475E-002
 439.00,4.4401E-002
 439.50,4.5412E-002
 440.00,4.6500E-002
 440.50,4.7705E-002
 441.00,4.8774E-002
 441.50,4.9896E-002
 442.00,5.1021E-002
 442.50,5.2076E-002
 443.00,5.3206E-002
 443.50,5.4114E-002
 444.00,5.4902E-002
 444.50,5.5666E-002
 445.00,5.6344E-002
 445.50,5.6919E-002
 446.00,5.7415E-002
 446.50,5.7602E-002
 447.00,5.7625E-002
 447.50,5.7505E-002
 448.00,5.7154E-002
 448.50,5.6515E-002
 449.00,5.5692E-002
 449.50,5.4676E-002
 450.00,5.3627E-002
 450.50,5.2463E-002
 451.00,5.1034E-002
 451.50,4.9305E-002
 452.00,4.7427E-002
 452.50,4.5546E-002
 453.00,4.3615E-002
 453.50,4.1690E-002
 454.00,3.9763E-002
 454.50,3.7770E-002
 455.00,3.6085E-002
 455.50,3.4412E-002
 456.00,3.2816E-002
 456.50,3.1322E-002
 457.00,2.9860E-002
 457.50,2.8609E-002
 458.00,2.7331E-002
 458.50,2.6021E-002
 459.00,2.4792E-002
 459.50,2.3783E-002
 460.00,2.2977E-002
 460.50,2.2258E-002
 461.00,2.1472E-002
 461.50,2.0704E-002
 462.00,2.0036E-002
 462.50,1.9459E-002
 463.00,1.8981E-002
 463.50,1.8489E-002
 464.00,1.7893E-002
 464.50,1.7302E-002
 465.00,1.6746E-002
 465.50,1.6341E-002
 466.00,1.5940E-002
 466.50,1.5474E-002
 467.00,1.4892E-002
 467.50,1.4362E-002
 468.00,1.3880E-002
 468.50,1.3525E-002
 469.00,1.3168E-002
 469.50,1.2766E-002
 470.00,1.2374E-002
 470.50,1.2004E-002
 471.00,1.1706E-002
 471.50,1.1406E-002
 472.00,1.1102E-002
 472.50,1.0799E-002
 473.00,1.0517E-002
 473.50,1.0272E-002
 474.00,9.9964E-003
 474.50,9.7979E-003
 475.00,9.6011E-003
 475.50,9.4604E-003
 476.00,9.3634E-003
 476.50,9.3052E-003
 477.00,9.2296E-003
 477.50,9.1776E-003
 478.00,9.0881E-003
 478.50,9.0402E-003
 479.00,9.0091E-003
 479.50,9.0134E-003
 480.00,9.0259E-003
 480.50,9.0258E-003
 481.00,9.0120E-003
 481.50,9.0283E-003
 482.00,9.1083E-003
 482.50,9.2256E-003
 483.00,9.3495E-003
 483.50,9.4402E-003
 484.00,9.5072E-003
 484.50,9.5438E-003
 485.00,9.5732E-003
 485.50,9.6724E-003
 486.00,9.8083E-003
 486.50,9.9858E-003
 487.00,1.0165E-002
 487.50,1.0367E-002
 488.00,1.0565E-002
 488.50,1.0744E-002
 489.00,1.0932E-002
 489.50,1.1152E-002
 490.00,1.1370E-002
 490.50,1.1645E-002
 491.00,1.1938E-002
 491.50,1.2251E-002
 492.00,1.2561E-002
 492.50,1.2847E-002
 493.00,1.3168E-002
 493.50,1.3545E-002
 494.00,1.3872E-002
 494.50,1.4158E-002
 495.00,1.4432E-002
 495.50,1.4766E-002
 496.00,1.5162E-002
 496.50,1.5575E-002
 497.00,1.5966E-002
 497.50,1.6327E-002
 498.00,1.6703E-002
 498.50,1.7087E-002
 499.00,1.7519E-002
 499.50,1.7946E-002
 500.00,1.8352E-002
 500.50,1.8752E-002
 501.00,1.9145E-002
 501.50,1.9533E-002
 502.00,1.9918E-002
 502.50,2.0308E-002
 503.00,2.0705E-002
 503.50,2.1128E-002
 504.00,2.1575E-002
 504.50,2.1977E-002
 505.00,2.2341E-002
 505.50,2.2701E-002
 506.00,2.3100E-002
 506.50,2.3537E-002
 507.00,2.3997E-002
 507.50,2.4438E-002
 508.00,2.4855E-002
 508.50,2.5277E-002
 509.00,2.5703E-002
 509.50,2.6106E-002
 510.00,2.6535E-002
 510.50,2.6889E-002
 511.00,2.7312E-002
 511.50,2.7714E-002
 512.00,2.8151E-002
 512.50,2.8606E-002
 513.00,2.9020E-002
 513.50,2.9426E-002
 514.00,2.9746E-002
 514.50,3.0101E-002
 515.00,3.0405E-002
 515.50,3.0779E-002
 516.00,3.1165E-002
 516.50,3.1576E-002
 517.00,3.1970E-002
 517.50,3.2310E-002
 518.00,3.2663E-002
 518.50,3.3026E-002
 519.00,3.3418E-002
 519.50,3.3734E-002
 520.00,3.4003E-002
 520.50,3.4274E-002
 521.00,3.4577E-002
 521.50,3.4842E-002
 522.00,3.5088E-002
 522.50,3.5368E-002
 523.00,3.5697E-002
 523.50,3.6049E-002
 524.00,3.6400E-002
 524.50,3.6636E-002
 525.00,3.6907E-002
 525.50,3.7125E-002
 526.00,3.7391E-002
 526.50,3.7749E-002
 527.00,3.8084E-002
 527.50,3.8425E-002
 528.00,3.8662E-002
 528.50,3.8859E-002
 529.00,3.9108E-002
 529.50,3.9437E-002
 530.00,3.9741E-002
 530.50,4.0012E-002
 531.00,4.0265E-002
 531.50,4.0481E-002
 532.00,4.0731E-002
 532.50,4.0923E-002
 533.00,4.1125E-002
 533.50,4.1416E-002
 534.00,4.1686E-002
 534.50,4.1977E-002
 535.00,4.2222E-002
 535.50,4.2461E-002
 536.00,4.2751E-002
 536.50,4.3006E-002
 537.00,4.3291E-002
 537.50,4.3445E-002
 538.00,4.3600E-002
 538.50,4.3764E-002
 539.00,4.4047E-002
 539.50,4.4370E-002
 540.00,4.4672E-002
 540.50,4.4898E-002
 541.00,4.5076E-002
 541.50,4.5291E-002
 542.00,4.5551E-002
 542.50,4.5822E-002
 543.00,4.6133E-002
 543.50,4.6358E-002
 544.00,4.6608E-002
 544.50,4.6835E-002
 545.00,4.7029E-002
 545.50,4.7284E-002
 546.00,4.7532E-002
 546.50,4.7842E-002
 547.00,4.8110E-002
 547.50,4.8365E-002
 548.00,4.8627E-002
 548.50,4.8860E-002
 549.00,4.9081E-002
 549.50,4.9210E-002
 550.00,4.9344E-002
 550.50,4.9584E-002
 551.00,4.9885E-002
 551.50,5.0250E-002
 552.00,5.0546E-002
 552.50,5.0813E-002
 553.00,5.1086E-002
 553.50,5.1351E-002
 554.00,5.1648E-002
 554.50,5.1930E-002
 555.00,5.2164E-002
 555.50,5.2437E-002
 556.00,5.2672E-002
 556.50,5.2893E-002
 557.00,5.3113E-002
 557.50,5.3439E-002
 558.00,5.3769E-002
 558.50,5.4090E-002
 559.00,5.4358E-002
 559.50,5.4631E-002
 560.00,5.4978E-002
 560.50,5.5244E-002
 561.00,5.5480E-002
 561.50,5.5623E-002
 562.00,5.5749E-002
 562.50,5.5928E-002
 563.00,5.6161E-002
 563.50,5.6436E-002
 564.00,5.6691E-002
 564.50,5.6922E-002
 565.00,5.7149E-002
 565.50,5.7406E-002
 566.00,5.7567E-002
 566.50,5.7674E-002
 567.00,5.7740E-002
 567.50,5.7939E-002
 568.00,5.8194E-002
 568.50,5.8357E-002
 569.00,5.8445E-002
 569.50,5.8536E-002
 570.00,5.8735E-002
 570.50,5.9020E-002
 571.00,5.9277E-002
 571.50,5.9478E-002
 572.00,5.9528E-002
 572.50,5.9567E-002
 573.00,5.9629E-002
 573.50,5.9836E-002
 574.00,6.0140E-002
 574.50,6.0354E-002
 575.00,6.0518E-002
 575.50,6.0588E-002
 576.00,6.0694E-002
 576.50,6.0751E-002
 577.00,6.0808E-002
 577.50,6.0905E-002
 578.00,6.1009E-002
 578.50,6.1182E-002
 579.00,6.1319E-002
 579.50,6.1430E-002
 580.00,6.1464E-002
 580.50,6.1486E-002
 581.00,6.1497E-002
 581.50,6.1478E-002
 582.00,6.1499E-002
 582.50,6.1522E-002
 583.00,6.1638E-002
 583.50,6.1840E-002
 584.00,6.1961E-002
 584.50,6.1979E-002
 585.00,6.1922E-002
 585.50,6.1945E-002
 586.00,6.2115E-002
 586.50,6.2126E-002
 587.00,6.2041E-002
 587.50,6.1917E-002
 588.00,6.1855E-002
 588.50,6.1795E-002
 589.00,6.1745E-002
 589.50,6.1665E-002
 590.00,6.1542E-002
 590.50,6.1443E-002
 591.00,6.1468E-002
 591.50,6.1573E-002
 592.00,6.1615E-002
 592.50,6.1430E-002
 593.00,6.1213E-002
 593.50,6.0963E-002
 594.00,6.0912E-002
 594.50,6.0868E-002
 595.00,6.0846E-002
 595.50,6.0602E-002
 596.00,6.0296E-002
 596.50,6.0073E-002
 597.00,5.9944E-002
 597.50,5.9863E-002
 598.00,5.9734E-002
 598.50,5.9585E-002
 599.00,5.9346E-002
 599.50,5.9104E-002
 600.00,5.8870E-002
 600.50,5.8773E-002
 601.00,5.8727E-002
 601.50,5.8612E-002
 602.00,5.8380E-002
 602.50,5.8018E-002
 603.00,5.7727E-002
 603.50,5.7411E-002
 604.00,5.7213E-002
 604.50,5.7019E-002
 605.00,5.6784E-002
 605.50,5.6405E-002
 606.00,5.5977E-002
 606.50,5.5612E-002
 607.00,5.5402E-002
 607.50,5.5181E-002
 608.00,5.4949E-002
 608.50,5.4695E-002
 609.00,5.4479E-002
 609.50,5.4274E-002
 610.00,5.4001E-002
 610.50,5.3602E-002
 611.00,5.3149E-002
 611.50,5.2678E-002
 612.00,5.2372E-002
 612.50,5.2180E-002
 613.00,5.2008E-002
 613.50,5.1644E-002
 614.00,5.1242E-002
 614.50,5.0774E-002
 615.00,5.0470E-002
 615.50,5.0151E-002
 616.00,4.9874E-002
 616.50,4.9586E-002
 617.00,4.9183E-002
 617.50,4.8789E-002
 618.00,4.8445E-002
 618.50,4.8105E-002
 619.00,4.7709E-002
 619.50,4.7239E-002
 620.00,4.6845E-002
 620.50,4.6589E-002
 621.00,4.6320E-002
 621.50,4.5962E-002
 622.00,4.5594E-002
 622.50,4.5208E-002
 623.00,4.4811E-002
 623.50,4.4441E-002
 624.00,4.4102E-002
 624.50,4.3882E-002
 625.00,4.3579E-002
 625.50,4.3316E-002
 626.00,4.2834E-002
 626.50,4.2368E-002
 627.00,4.1891E-002
 627.50,4.1591E-002
 628.00,4.1312E-002
 628.50,4.0956E-002
 629.00,4.0521E-002
 629.50,4.0038E-002
 630.00,3.9596E-002
 630.50,3.9209E-002
 631.00,3.8869E-002
 631.50,3.8508E-002
 632.00,3.8063E-002
 632.50,3.7678E-002
 633.00,3.7338E-002
 633.50,3.7047E-002
 634.00,3.6774E-002
 634.50,3.6543E-002
 635.00,3.6352E-002
 635.50,3.6046E-002
 636.00,3.5589E-002
 636.50,3.5060E-002
 637.00,3.4570E-002
 637.50,3.4225E-002
 638.00,3.3942E-002
 638.50,3.3690E-002
 639.00,3.3347E-002
 639.50,3.2932E-002
 640.00,3.2578E-002
 640.50,3.2213E-002
 641.00,3.1867E-002
 641.50,3.1443E-002
 642.00,3.1113E-002
 642.50,3.0861E-002
 643.00,3.0550E-002
 643.50,3.0098E-002
 644.00,2.9654E-002
 644.50,2.9297E-002
 645.00,2.9019E-002
 645.50,2.8748E-002
 646.00,2.8452E-002
 646.50,2.8202E-002
 647.00,2.7904E-002
 647.50,2.7617E-002
 648.00,2.7280E-002
 648.50,2.6959E-002
 649.00,2.6692E-002
 649.50,2.6361E-002
 650.00,2.5974E-002
 650.50,2.5571E-002
 651.00,2.5203E-002
 651.50,2.4961E-002
 652.00,2.4704E-002
 652.50,2.4446E-002
 653.00,2.4138E-002
 653.50,2.3791E-002
 654.00,2.3446E-002
 654.50,2.3106E-002
 655.00,2.2792E-002
 655.50,2.2513E-002
 656.00,2.2340E-002
 656.50,2.2114E-002
 657.00,2.1909E-002
 657.50,2.1558E-002
 658.00,2.1219E-002
 658.50,2.0894E-002
 659.00,2.0680E-002
 659.50,2.0503E-002
 660.00,2.0201E-002
 660.50,1.9886E-002
 661.00,1.9577E-002
 661.50,1.9354E-002
 662.00,1.9162E-002
 662.50,1.9012E-002
 663.00,1.8824E-002
 663.50,1.8599E-002
 664.00,1.8236E-002
 664.50,1.7916E-002
 665.00,1.7520E-002
 665.50,1.7263E-002
 666.00,1.7045E-002
 666.50,1.6876E-002
 667.00,1.6658E-002
 667.50,1.6386E-002
 668.00,1.6135E-002
 668.50,1.5920E-002
 669.00,1.5801E-002
 669.50,1.5644E-002
 670.00,1.5503E-002
 670.50,1.5282E-002
 671.00,1.5077E-002
 671.50,1.4890E-002
 672.00,1.4670E-002
 672.50,1.4418E-002
 673.00,1.4163E-002
 673.50,1.3953E-002
 674.00,1.3793E-002
 674.50,1.3595E-002
 675.00,1.3440E-002
 675.50,1.3218E-002
 676.00,1.2984E-002
 676.50,1.2842E-002
 677.00,1.2741E-002
 677.50,1.2622E-002
 678.00,1.2385E-002
 678.50,1.2090E-002
 679.00,1.1869E-002
 679.50,1.1713E-002
 680.00,1.1627E-002
 680.50,1.1441E-002
 681.00,1.1287E-002
 681.50,1.1172E-002
 682.00,1.1174E-002
 682.50,1.1079E-002
 683.00,1.0952E-002
 683.50,1.0779E-002
 684.00,1.0647E-002
 684.50,1.0494E-002
 685.00,1.0326E-002
 685.50,1.0115E-002
 686.00,9.8457E-003
 686.50,9.6084E-003
 687.00,9.4764E-003
 687.50,9.4223E-003
 688.00,9.3634E-003
 688.50,9.2846E-003
 689.00,9.1464E-003
 689.50,8.9744E-003
 690.00,8.7902E-003
 690.50,8.7470E-003
 691.00,8.6940E-003
 691.50,8.6093E-003
 692.00,8.4582E-003
 692.50,8.2263E-003
 693.00,8.0140E-003
 693.50,7.9033E-003
 694.00,7.9073E-003
 694.50,7.8616E-003
 695.00,7.6938E-003
 695.50,7.5778E-003
 696.00,7.4836E-003
 696.50,7.3387E-003
 697.00,7.1339E-003
 697.50,6.9512E-003
 698.00,6.8818E-003
 698.50,6.7583E-003
 699.00,6.6412E-003
 699.50,6.4939E-003
 700.00,6.4739E-003
 700.50,6.4594E-003
 701.00,6.4017E-003
 701.50,6.2653E-003
 702.00,6.1524E-003
 702.50,6.0779E-003
 703.00,6.0388E-003
 703.50,5.9487E-003
 704.00,5.8397E-003
 704.50,5.6859E-003
 705.00,5.6050E-003
 705.50,5.5164E-003
 706.00,5.3842E-003
 706.50,5.2684E-003
 707.00,5.2052E-003
 707.50,5.1684E-003
 708.00,5.1376E-003
 708.50,5.1346E-003
 709.00,5.1101E-003
 709.50,5.0404E-003
 710.00,4.9325E-003
 710.50,4.8645E-003
 711.00,4.8152E-003
 711.50,4.6774E-003
 712.00,4.5979E-003
 712.50,4.5747E-003
 713.00,4.5973E-003
 713.50,4.4922E-003
 714.00,4.3558E-003
 714.50,4.3179E-003
 715.00,4.2986E-003
 715.50,4.2438E-003
 716.00,4.1908E-003
 716.50,4.1137E-003
 717.00,3.9658E-003
 717.50,3.8605E-003
 718.00,3.6893E-003
 718.50,3.6424E-003
 719.00,3.6866E-003
 719.50,3.8093E-003
 720.00,3.7515E-003
 720.50,3.5696E-003
 721.00,3.5010E-003
 721.50,3.4326E-003
 722.00,3.3751E-003
 722.50,3.2633E-003
 723.00,3.2743E-003
 723.50,3.3528E-003
 724.00,3.3800E-003
 724.50,3.2444E-003
 725.00,3.0006E-003
 725.50,2.8320E-003
 726.00,2.7666E-003
 726.50,2.7413E-003
 727.00,2.7506E-003
 727.50,2.8357E-003
 728.00,2.9482E-003
 728.50,3.0029E-003
 729.00,2.8655E-003
 729.50,2.6684E-003
 730.00,2.5797E-003
 730.50,2.5554E-003
 731.00,2.4755E-003
 731.50,2.4413E-003
 732.00,2.4889E-003
 732.50,2.5580E-003
 733.00,2.4267E-003
 733.50,2.3509E-003
 734.00,2.2708E-003
 734.50,2.2838E-003
 735.00,2.2516E-003
 735.50,2.2085E-003
 736.00,2.2224E-003
 736.50,2.2285E-003
 737.00,2.1898E-003
 737.50,2.0830E-003
 738.00,2.0842E-003
 738.50,2.1221E-003
 739.00,2.0722E-003
 739.50,1.8800E-003
 740.00,1.8111E-003
 740.50,1.7917E-003
 741.00,1.8898E-003
 741.50,1.8691E-003
 742.00,1.8494E-003
 742.50,1.7193E-003
 743.00,1.6224E-003
 743.50,1.6243E-003
 744.00,1.5786E-003
 744.50,1.6208E-003
 745.00,1.7328E-003
 745.50,1.8452E-003
 746.00,1.7264E-003
 746.50,1.6089E-003
 747.00,1.5728E-003
 747.50,1.4933E-003
 748.00,1.4203E-003
 748.50,1.3872E-003
 749.00,1.3168E-003
 749.50,1.1616E-003
 750.00,1.1458E-003
 750.50,9.7186E-004
 751.00,7.2071E-004
 751.50,6.8323E-004
 752.00,1.1048E-003
 752.50,1.2639E-003
 753.00,1.2058E-003
 753.50,1.1050E-003
 754.00,1.0423E-003
 754.50,1.0347E-003
 755.00,1.0607E-003
 755.50,1.0485E-003
 756.00,9.2828E-004
 756.50,9.2827E-004
 757.00,9.1217E-004
 757.50,9.3852E-004
 758.00,9.3226E-004
 758.50,1.0369E-003
 759.00,1.0498E-003
 759.50,9.0002E-004
 760.00,8.1603E-004
 760.50,8.2352E-004
 761.00,8.5943E-004
 761.50,7.0081E-004
 762.00,6.8110E-004
 762.50,7.5148E-004
 763.00,8.0481E-004
 763.50,8.0778E-004
 764.00,9.1085E-004
 764.50,9.3341E-004
 765.00,9.1493E-004
 765.50,7.7814E-004
 766.00,6.3485E-004
 766.50,5.3088E-004
 767.00,6.8435E-004
 767.50,6.3600E-004
 768.00,5.6283E-004
 768.50,5.9219E-004
 769.00,6.6840E-004
 769.50,6.7773E-004
 770.00,6.7434E-004
 770.50,8.4167E-004
 771.00,8.4366E-004
 771.50,6.6916E-004
 772.00,5.0551E-004
 772.50,4.8678E-004
 773.00,4.8270E-004
 773.50,4.4932E-004
 774.00,3.3876E-004
 774.50,3.7206E-004
 775.00,3.6207E-004
 775.50,3.3341E-004
 776.00,3.4850E-004
 776.50,3.9452E-004
 777.00,3.2502E-004
 777.50,2.8558E-004
 778.00,2.4674E-004
 778.50,1.9111E-004
 779.00,2.3749E-004
 779.50,3.9956E-004
 780.00,5.2343E-004
 780.50,5.9115E-004
 781.00,6.2156E-004
 781.50,4.4448E-004
 782.00,2.1526E-004
 782.50,7.7713E-005
 783.00,2.1637E-004
 783.50,1.6730E-004
 784.00,1.7812E-004
 784.50,2.5052E-005
 785.00,4.2860E-006
 785.50,0.0000E+000
 786.00,0.0000E+000
 786.50,0.0000E+000
 787.00,0.0000E+000
 787.50,0.0000E+000
 788.00,1.5830E-004
 788.50,2.4247E-004
 789.00,2.3305E-004
 789.50,9.5384E-005
 790.00,0.0000E+000
 790.50,0.0000E+000
 791.00,0.0000E+000
 791.50,0.0000E+000
 792.00,0.0000E+000
 792.50,0.0000E+000
 793.00,0.0000E+000
 793.50,0.0000E+000
 794.00,0.0000E+000
 794.50,0.0000E+000
 795.00,0.0000E+000
 795.50,0.0000E+000
 796.00,0.0000E+000
 796.50,0.0000E+000
 797.00,0.0000E+000
 797.50,0.0000E+000
 798.00,0.0000E+000
 798.50,0.0000E+000
 799.00,0.0000E+000
 799.50,0.0000E+000
 800.00,0.0000E+000
 800.50,1.0037E-004
 801.00,2.2817E-004
 801.50,9.8090E-005
 802.00,0.0000E+000
 802.50,4.3756E-006
 803.00,2.1698E-004
 803.50,3.7582E-005
 804.00,0.0000E+000
 804.50,0.0000E+000
 805.00,0.0000E+000
 805.50,0.0000E+000
 806.00,0.0000E+000
 806.50,0.0000E+000
 807.00,0.0000E+000
 807.50,0.0000E+000
 808.00,0.0000E+000
 808.50,0.0000E+000
 809.00,0.0000E+000
 809.50,0.0000E+000
 810.00,0.0000E+000
 810.50,0.0000E+000
 811.00,0.0000E+000
 811.50,0.0000E+000
 812.00,0.0000E+000
 812.50,0.0000E+000
 813.00,0.0000E+000
 813.50,0.0000E+000
 814.00,0.0000E+000
 814.50,0.0000E+000
 815.00,0.0000E+000
 815.50,0.0000E+000
 816.00,0.0000E+000
 816.50,4.3352E-005
 817.00,0.0000E+000
 817.50,0.0000E+000
 818.00,0.0000E+000
 818.50,0.0000E+000
 819.00,0.0000E+000
 819.50,0.0000E+000
 820.00,0.0000E+000
 820.50,0.0000E+000
 821.00,0.0000E+000
 821.50,0.0000E+000
 822.00,0.0000E+000
 822.50,0.0000E+000
 823.00,0.0000E+000
 823.50,0.0000E+000
 824.00,0.0000E+000
 824.50,0.0000E+000
 825.00,0.0000E+000
 825.50,0.0000E+000
 826.00,0.0000E+000
 826.50,0.0000E+000
 827.00,0.0000E+000
 827.50,0.0000E+000
 828.00,0.0000E+000
 828.50,0.0000E+000
 829.00,0.0000E+000
 829.50,0.0000E+000
 830.00,0.0000E+000
 830.50,0.0000E+000
 831.00,0.0000E+000
 831.50,0.0000E+000
 832.00,0.0000E+000
 832.50,0.0000E+000
 833.00,0.0000E+000
 833.50,0.0000E+000
 834.00,0.0000E+000
 834.50,0.0000E+000
 835.00,0.0000E+000
 835.50,0.0000E+000
 836.00,0.0000E+000
 836.50,0.0000E+000
 837.00,0.0000E+000
 837.50,0.0000E+000
 838.00,0.0000E+000
 838.50,0.0000E+000
 839.00,0.0000E+000
 839.50,0.0000E+000
 840.00,0.0000E+000
 840.50,0.0000E+000
 841.00,0.0000E+000
 841.50,0.0000E+000
 842.00,0.0000E+000
 842.50,0.0000E+000
 843.00,0.0000E+000
 843.50,0.0000E+000
 844.00,0.0000E+000
 844.50,0.0000E+000
 845.00,0.0000E+000
 845.50,0.0000E+000
 846.00,0.0000E+000
 846.50,0.0000E+000
 847.00,0.0000E+000
 847.50,0.0000E+000
 848.00,0.0000E+000
 848.50,0.0000E+000
 849.00,0.0000E+000
 849.50,0.0000E+000
 850.00,0.0000E+000
 850.50,0.0000E+000
 851.00,0.0000E+000
 851.50,0.0000E+000
 852.00,0.0000E+000
 852.50,0.0000E+000
 853.00,0.0000E+000
 853.50,0.0000E+000
 854.00,0.0000E+000
 854.50,0.0000E+000
 855.00,0.0000E+000
 855.50,0.0000E+000
 856.00,0.0000E+000
 856.50,0.0000E+000
 857.00,0.0000E+000
 857.50,0.0000E+000
 858.00,0.0000E+000
 858.50,6.0677E-005
 859.00,2.4901E-004
 859.50,0.0000E+000
 860.00,0.0000E+000
 860.50,0.0000E+000
 861.00,0.0000E+000
 861.50,0.0000E+000
 862.00,0.0000E+000
 862.50,0.0000E+000
 863.00,0.0000E+000
 863.50,0.0000E+000
 864.00,0.0000E+000
 864.50,0.0000E+000
 865.00,0.0000E+000
 865.50,0.0000E+000
 866.00,0.0000E+000
 866.50,0.0000E+000
 867.00,0.0000E+000
 867.50,0.0000E+000
 868.00,0.0000E+000
 868.50,0.0000E+000
 869.00,0.0000E+000
 869.50,0.0000E+000
 870.00,0.0000E+000
 870.50,0.0000E+000
 871.00,0.0000E+000
 871.50,0.0000E+000
 872.00,0.0000E+000
 872.50,2.5672E-005
 873.00,4.9446E-005
 873.50,0.0000E+000
 874.00,0.0000E+000
 874.50,0.0000E+000
 875.00,0.0000E+000
 875.50,0.0000E+000
 876.00,0.0000E+000
 876.50,0.0000E+000
 877.00,0.0000E+000
 877.50,0.0000E+000
 878.00,0.0000E+000
 878.50,0.0000E+000
 879.00,0.0000E+000
 879.50,0.0000E+000
 880.00,0.0000E+000
 880.50,0.0000E+000
 881.00,1.2858E-005
 881.50,0.0000E+000
 882.00,0.0000E+000
 882.50,6.2468E-005
 883.00,7.6257E-004
 883.50,9.3338E-004
 884.00,4.6096E-004
 884.50,2.2674E-004
 885.00,9.4764E-005
 885.50,0.0000E+000
 886.00,0.0000E+000
 886.50,0.0000E+000
 887.00,0.0000E+000
 887.50,0.0000E+000
 888.00,0.0000E+000
 888.50,0.0000E+000
 889.00,0.0000E+000
 889.50,0.0000E+000
 890.00,0.0000E+000
 890.50,0.0000E+000
 891.00,0.0000E+000
 891.50,1.2202E-004
 892.00,1.1124E-003
 892.50,1.6855E-003
 893.00,7.8408E-004
 893.50,0.0000E+000
 894.00,0.0000E+000
 894.50,0.0000E+000
 895.00,0.0000E+000
 895.50,0.0000E+000
 896.00,0.0000E+000
 896.50,0.0000E+000
 897.00,0.0000E+000
 897.50,0.0000E+000
 898.00,0.0000E+000
 898.50,0.0000E+000
 899.00,0.0000E+000
 899.50,0.0000E+000

