wavelength,relativeIntensity
 273.00,0.0000E+000
 273.50,0.0000E+000
 274.00,0.0000E+000
 274.50,0.0000E+000
 275.00,0.0000E+000
 275.50,0.0000E+000
 276.00,0.0000E+000
 276.50,0.0000E+000
 277.00,0.0000E+000
 277.50,0.0000E+000
 278.00,0.0000E+000
 278.50,0.0000E+000
 279.00,0.0000E+000
 279.50,0.0000E+000
 280.00,0.0000E+000
 280.50,0.0000E+000
 281.00,0.0000E+000
 281.50,0.0000E+000
 282.00,0.0000E+000
 282.50,0.0000E+000
 283.00,0.0000E+000
 283.50,0.0000E+000
 284.00,0.0000E+000
 284.50,0.0000E+000
 285.00,0.0000E+000
 285.50,0.0000E+000
 286.00,0.0000E+000
 286.50,0.0000E+000
 287.00,0.0000E+000
 287.50,0.0000E+000
 288.00,0.0000E+000
 288.50,0.0000E+000
 289.00,0.0000E+000
 289.50,0.0000E+000
 290.00,0.0000E+000
 290.50,0.0000E+000
 291.00,0.0000E+000
 291.50,0.0000E+000
 292.00,0.0000E+000
 292.50,0.0000E+000
 293.00,0.0000E+000
 293.50,0.0000E+000
 294.00,0.0000E+000
 294.50,0.0000E+000
 295.00,0.0000E+000
 295.50,0.0000E+000
 296.00,0.0000E+000
 296.50,0.0000E+000
 297.00,0.0000E+000
 297.50,0.0000E+000
 298.00,0.0000E+000
 298.50,0.0000E+000
 299.00,0.0000E+000
 299.50,0.0000E+000
 300.00,0.0000E+000
 300.50,0.0000E+000
 301.00,0.0000E+000
 301.50,0.0000E+000
 302.00,0.0000E+000
 302.50,0.0000E+000
 303.00,0.0000E+000
 303.50,0.0000E+000
 304.00,0.0000E+000
 304.50,0.0000E+000
 305.00,0.0000E+000
 305.50,0.0000E+000
 306.00,0.0000E+000
 306.50,0.0000E+000
 307.00,0.0000E+000
 307.50,0.0000E+000
 308.00,0.0000E+000
 308.50,0.0000E+000
 309.00,0.0000E+000
 309.50,0.0000E+000
 310.00,0.0000E+000
 310.50,0.0000E+000
 311.00,0.0000E+000
 311.50,0.0000E+000
 312.00,0.0000E+000
 312.50,0.0000E+000
 313.00,0.0000E+000
 313.50,0.0000E+000
 314.00,0.0000E+000
 314.50,0.0000E+000
 315.00,0.0000E+000
 315.50,0.0000E+000
 316.00,0.0000E+000
 316.50,0.0000E+000
 317.00,0.0000E+000
 317.50,0.0000E+000
 318.00,0.0000E+000
 318.50,0.0000E+000
 319.00,0.0000E+000
 319.50,0.0000E+000
 320.00,0.0000E+000
 320.50,0.0000E+000
 321.00,0.0000E+000
 321.50,0.0000E+000
 322.00,0.0000E+000
 322.50,0.0000E+000
 323.00,0.0000E+000
 323.50,0.0000E+000
 324.00,0.0000E+000
 324.50,0.0000E+000
 325.00,0.0000E+000
 325.50,0.0000E+000
 326.00,0.0000E+000
 326.50,0.0000E+000
 327.00,0.0000E+000
 327.50,0.0000E+000
 328.00,0.0000E+000
 328.50,0.0000E+000
 329.00,0.0000E+000
 329.50,0.0000E+000
 330.00,0.0000E+000
 330.50,0.0000E+000
 331.00,0.0000E+000
 331.50,0.0000E+000
 332.00,0.0000E+000
 332.50,0.0000E+000
 333.00,0.0000E+000
 333.50,0.0000E+000
 334.00,0.0000E+000
 334.50,0.0000E+000
 335.00,0.0000E+000
 335.50,0.0000E+000
 336.00,0.0000E+000
 336.50,0.0000E+000
 337.00,0.0000E+000
 337.50,0.0000E+000
 338.00,0.0000E+000
 338.50,0.0000E+000
 339.00,0.0000E+000
 339.50,0.0000E+000
 340.00,0.0000E+000
 340.50,0.0000E+000
 341.00,0.0000E+000
 341.50,0.0000E+000
 342.00,0.0000E+000
 342.50,0.0000E+000
 343.00,0.0000E+000
 343.50,0.0000E+000
 344.00,0.0000E+000
 344.50,0.0000E+000
 345.00,0.0000E+000
 345.50,0.0000E+000
 346.00,0.0000E+000
 346.50,0.0000E+000
 347.00,0.0000E+000
 347.50,0.0000E+000
 348.00,0.0000E+000
 348.50,0.0000E+000
 349.00,0.0000E+000
 349.50,0.0000E+000
 350.00,0.0000E+000
 350.50,0.0000E+000
 351.00,0.0000E+000
 351.50,0.0000E+000
 352.00,0.0000E+000
 352.50,0.0000E+000
 353.00,0.0000E+000
 353.50,0.0000E+000
 354.00,0.0000E+000
 354.50,0.0000E+000
 355.00,0.0000E+000
 355.50,0.0000E+000
 356.00,0.0000E+000
 356.50,0.0000E+000
 357.00,0.0000E+000
 357.50,0.0000E+000
 358.00,0.0000E+000
 358.50,0.0000E+000
 359.00,0.0000E+000
 359.50,0.0000E+000
 360.00,0.0000E+000
 360.50,0.0000E+000
 361.00,0.0000E+000
 361.50,0.0000E+000
 362.00,0.0000E+000
 362.50,0.0000E+000
 363.00,0.0000E+000
 363.50,0.0000E+000
 364.00,0.0000E+000
 364.50,0.0000E+000
 365.00,0.0000E+000
 365.50,0.0000E+000
 366.00,0.0000E+000
 366.50,0.0000E+000
 367.00,0.0000E+000
 367.50,0.0000E+000
 368.00,0.0000E+000
 368.50,0.0000E+000
 369.00,0.0000E+000
 369.50,0.0000E+000
 370.00,0.0000E+000
 370.50,0.0000E+000
 371.00,0.0000E+000
 371.50,0.0000E+000
 372.00,0.0000E+000
 372.50,0.0000E+000
 373.00,0.0000E+000
 373.50,0.0000E+000
 374.00,0.0000E+000
 374.50,0.0000E+000
 375.00,0.0000E+000
 375.50,0.0000E+000
 376.00,0.0000E+000
 376.50,0.0000E+000
 377.00,0.0000E+000
 377.50,0.0000E+000
 378.00,0.0000E+000
 378.50,0.0000E+000
 379.00,0.0000E+000
 379.50,0.0000E+000
 380.00,0.0000E+000
 380.50,0.0000E+000
 381.00,0.0000E+000
 381.50,0.0000E+000
 382.00,0.0000E+000
 382.50,0.0000E+000
 383.00,0.0000E+000
 383.50,0.0000E+000
 384.00,0.0000E+000
 384.50,0.0000E+000
 385.00,0.0000E+000
 385.50,0.0000E+000
 386.00,0.0000E+000
 386.50,0.0000E+000
 387.00,0.0000E+000
 387.50,0.0000E+000
 388.00,0.0000E+000
 388.50,0.0000E+000
 389.00,0.0000E+000
 389.50,0.0000E+000
 390.00,0.0000E+000
 390.50,0.0000E+000
 391.00,0.0000E+000
 391.50,0.0000E+000
 392.00,0.0000E+000
 392.50,0.0000E+000
 393.00,0.0000E+000
 393.50,0.0000E+000
 394.00,0.0000E+000
 394.50,0.0000E+000
 395.00,0.0000E+000
 395.50,0.0000E+000
 396.00,0.0000E+000
 396.50,0.0000E+000
 397.00,0.0000E+000
 397.50,0.0000E+000
 398.00,0.0000E+000
 398.50,0.0000E+000
 399.00,0.0000E+000
 399.50,0.0000E+000
 400.00,0.0000E+000
 400.50,0.0000E+000
 401.00,0.0000E+000
 401.50,0.0000E+000
 402.00,0.0000E+000
 402.50,0.0000E+000
 403.00,0.0000E+000
 403.50,0.0000E+000
 404.00,0.0000E+000
 404.50,0.0000E+000
 405.00,0.0000E+000
 405.50,0.0000E+000
 406.00,0.0000E+000
 406.50,0.0000E+000
 407.00,0.0000E+000
 407.50,0.0000E+000
 408.00,2.5574E-005
 408.50,5.6234E-006
 409.00,0.0000E+000
 409.50,0.0000E+000
 410.00,4.4242E-010
 410.50,1.1503E-004
 411.00,1.9057E-004
 411.50,2.6384E-004
 412.00,3.1754E-004
 412.50,3.1984E-004
 413.00,3.0365E-004
 413.50,2.8999E-004
 414.00,3.1628E-004
 414.50,3.7103E-004
 415.00,4.5724E-004
 415.50,5.4504E-004
 416.00,6.4028E-004
 416.50,7.2572E-004
 417.00,8.2380E-004
 417.50,8.8617E-004
 418.00,9.5506E-004
 418.50,1.0015E-003
 419.00,1.0586E-003
 419.50,1.1648E-003
 420.00,1.3482E-003
 420.50,1.5600E-003
 421.00,1.7309E-003
 421.50,1.8758E-003
 422.00,2.0130E-003
 422.50,2.1836E-003
 423.00,2.3519E-003
 423.50,2.5374E-003
 424.00,2.7115E-003
 424.50,2.9013E-003
 425.00,3.1097E-003
 425.50,3.3118E-003
 426.00,3.5330E-003
 426.50,3.7387E-003
 427.00,3.9712E-003
 427.50,4.2622E-003
 428.00,4.5426E-003
 428.50,4.8129E-003
 429.00,5.1040E-003
 429.50,5.3998E-003
 430.00,5.7172E-003
 430.50,6.0377E-003
 431.00,6.3059E-003
 431.50,6.5943E-003
 432.00,6.9294E-003
 432.50,7.2788E-003
 433.00,7.6937E-003
 433.50,8.0811E-003
 434.00,8.5343E-003
 434.50,9.0169E-003
 435.00,9.5444E-003
 435.50,1.0087E-002
 436.00,1.0650E-002
 436.50,1.1268E-002
 437.00,1.1850E-002
 437.50,1.2403E-002
 438.00,1.2978E-002
 438.50,1.3563E-002
 439.00,1.4179E-002
 439.50,1.4873E-002
 440.00,1.5569E-002
 440.50,1.6311E-002
 441.00,1.7006E-002
 441.50,1.7667E-002
 442.00,1.8287E-002
 442.50,1.8890E-002
 443.00,1.9523E-002
 443.50,2.0042E-002
 444.00,2.0558E-002
 444.50,2.1068E-002
 445.00,2.1501E-002
 445.50,2.1878E-002
 446.00,2.2119E-002
 446.50,2.2191E-002
 447.00,2.2152E-002
 447.50,2.1938E-002
 448.00,2.1694E-002
 448.50,2.1410E-002
 449.00,2.1064E-002
 449.50,2.0700E-002
 450.00,2.0222E-002
 450.50,1.9703E-002
 451.00,1.9180E-002
 451.50,1.8670E-002
 452.00,1.8107E-002
 452.50,1.7495E-002
 453.00,1.6791E-002
 453.50,1.6086E-002
 454.00,1.5482E-002
 454.50,1.4833E-002
 455.00,1.4329E-002
 455.50,1.3786E-002
 456.00,1.3266E-002
 456.50,1.2871E-002
 457.00,1.2500E-002
 457.50,1.2224E-002
 458.00,1.1916E-002
 458.50,1.1598E-002
 459.00,1.1314E-002
 459.50,1.1049E-002
 460.00,1.0767E-002
 460.50,1.0501E-002
 461.00,1.0278E-002
 461.50,1.0105E-002
 462.00,9.9026E-003
 462.50,9.6700E-003
 463.00,9.4394E-003
 463.50,9.2124E-003
 464.00,9.0138E-003
 464.50,8.8136E-003
 465.00,8.6783E-003
 465.50,8.5098E-003
 466.00,8.3117E-003
 466.50,8.1437E-003
 467.00,7.9707E-003
 467.50,7.8341E-003
 468.00,7.6562E-003
 468.50,7.5023E-003
 469.00,7.3535E-003
 469.50,7.2484E-003
 470.00,7.0774E-003
 470.50,6.9524E-003
 471.00,6.8239E-003
 471.50,6.7169E-003
 472.00,6.6770E-003
 472.50,6.6261E-003
 473.00,6.5803E-003
 473.50,6.5726E-003
 474.00,6.5092E-003
 474.50,6.4843E-003
 475.00,6.4758E-003
 475.50,6.4785E-003
 476.00,6.5094E-003
 476.50,6.5036E-003
 477.00,6.5050E-003
 477.50,6.5182E-003
 478.00,6.5311E-003
 478.50,6.6204E-003
 479.00,6.7340E-003
 479.50,6.8804E-003
 480.00,7.0163E-003
 480.50,7.1245E-003
 481.00,7.1689E-003
 481.50,7.2259E-003
 482.00,7.3118E-003
 482.50,7.4366E-003
 483.00,7.5695E-003
 483.50,7.7346E-003
 484.00,7.8773E-003
 484.50,8.0464E-003
 485.00,8.1975E-003
 485.50,8.3302E-003
 486.00,8.4695E-003
 486.50,8.6181E-003
 487.00,8.7827E-003
 487.50,8.9486E-003
 488.00,9.1190E-003
 488.50,9.2927E-003
 489.00,9.4825E-003
 489.50,9.6896E-003
 490.00,9.9237E-003
 490.50,1.0174E-002
 491.00,1.0410E-002
 491.50,1.0623E-002
 492.00,1.0804E-002
 492.50,1.0990E-002
 493.00,1.1258E-002
 493.50,1.1524E-002
 494.00,1.1814E-002
 494.50,1.2049E-002
 495.00,1.2261E-002
 495.50,1.2523E-002
 496.00,1.2786E-002
 496.50,1.3074E-002
 497.00,1.3331E-002
 497.50,1.3573E-002
 498.00,1.3806E-002
 498.50,1.4063E-002
 499.00,1.4337E-002
 499.50,1.4593E-002
 500.00,1.4870E-002
 500.50,1.5056E-002
 501.00,1.5236E-002
 501.50,1.5433E-002
 502.00,1.5679E-002
 502.50,1.5997E-002
 503.00,1.6321E-002
 503.50,1.6611E-002
 504.00,1.6875E-002
 504.50,1.7076E-002
 505.00,1.7267E-002
 505.50,1.7461E-002
 506.00,1.7688E-002
 506.50,1.7925E-002
 507.00,1.8132E-002
 507.50,1.8393E-002
 508.00,1.8654E-002
 508.50,1.8928E-002
 509.00,1.9197E-002
 509.50,1.9435E-002
 510.00,1.9672E-002
 510.50,1.9915E-002
 511.00,2.0179E-002
 511.50,2.0459E-002
 512.00,2.0711E-002
 512.50,2.0974E-002
 513.00,2.1193E-002
 513.50,2.1379E-002
 514.00,2.1609E-002
 514.50,2.1874E-002
 515.00,2.2138E-002
 515.50,2.2370E-002
 516.00,2.2558E-002
 516.50,2.2776E-002
 517.00,2.3039E-002
 517.50,2.3292E-002
 518.00,2.3547E-002
 518.50,2.3765E-002
 519.00,2.3972E-002
 519.50,2.4171E-002
 520.00,2.4438E-002
 520.50,2.4753E-002
 521.00,2.5066E-002
 521.50,2.5285E-002
 522.00,2.5474E-002
 522.50,2.5632E-002
 523.00,2.5899E-002
 523.50,2.6217E-002
 524.00,2.6526E-002
 524.50,2.6850E-002
 525.00,2.7100E-002
 525.50,2.7383E-002
 526.00,2.7638E-002
 526.50,2.7858E-002
 527.00,2.8151E-002
 527.50,2.8434E-002
 528.00,2.8732E-002
 528.50,2.8982E-002
 529.00,2.9191E-002
 529.50,2.9406E-002
 530.00,2.9636E-002
 530.50,2.9915E-002
 531.00,3.0194E-002
 531.50,3.0453E-002
 532.00,3.0710E-002
 532.50,3.1051E-002
 533.00,3.1429E-002
 533.50,3.1796E-002
 534.00,3.2088E-002
 534.50,3.2357E-002
 535.00,3.2637E-002
 535.50,3.2910E-002
 536.00,3.3135E-002
 536.50,3.3333E-002
 537.00,3.3632E-002
 537.50,3.3981E-002
 538.00,3.4354E-002
 538.50,3.4639E-002
 539.00,3.4880E-002
 539.50,3.5130E-002
 540.00,3.5452E-002
 540.50,3.5785E-002
 541.00,3.6210E-002
 541.50,3.6583E-002
 542.00,3.6911E-002
 542.50,3.7218E-002
 543.00,3.7506E-002
 543.50,3.7826E-002
 544.00,3.8145E-002
 544.50,3.8408E-002
 545.00,3.8732E-002
 545.50,3.9056E-002
 546.00,3.9355E-002
 546.50,3.9730E-002
 547.00,4.0070E-002
 547.50,4.0460E-002
 548.00,4.0755E-002
 548.50,4.0998E-002
 549.00,4.1252E-002
 549.50,4.1599E-002
 550.00,4.1966E-002
 550.50,4.2357E-002
 551.00,4.2719E-002
 551.50,4.3077E-002
 552.00,4.3454E-002
 552.50,4.3774E-002
 553.00,4.4169E-002
 553.50,4.4531E-002
 554.00,4.4879E-002
 554.50,4.5200E-002
 555.00,4.5486E-002
 555.50,4.5865E-002
 556.00,4.6162E-002
 556.50,4.6408E-002
 557.00,4.6682E-002
 557.50,4.7074E-002
 558.00,4.7449E-002
 558.50,4.7830E-002
 559.00,4.8113E-002
 559.50,4.8472E-002
 560.00,4.8810E-002
 560.50,4.9085E-002
 561.00,4.9414E-002
 561.50,4.9664E-002
 562.00,4.9941E-002
 562.50,5.0229E-002
 563.00,5.0516E-002
 563.50,5.0930E-002
 564.00,5.1247E-002
 564.50,5.1577E-002
 565.00,5.1878E-002
 565.50,5.2196E-002
 566.00,5.2460E-002
 566.50,5.2696E-002
 567.00,5.2874E-002
 567.50,5.3144E-002
 568.00,5.3491E-002
 568.50,5.3894E-002
 569.00,5.4236E-002
 569.50,5.4465E-002
 570.00,5.4668E-002
 570.50,5.4870E-002
 571.00,5.5175E-002
 571.50,5.5561E-002
 572.00,5.6006E-002
 572.50,5.6379E-002
 573.00,5.6670E-002
 573.50,5.6943E-002
 574.00,5.7156E-002
 574.50,5.7297E-002
 575.00,5.7395E-002
 575.50,5.7614E-002
 576.00,5.7960E-002
 576.50,5.8311E-002
 577.00,5.8642E-002
 577.50,5.8943E-002
 578.00,5.9271E-002
 578.50,5.9612E-002
 579.00,5.9904E-002
 579.50,6.0069E-002
 580.00,6.0258E-002
 580.50,6.0446E-002
 581.00,6.0751E-002
 581.50,6.1021E-002
 582.00,6.1209E-002
 582.50,6.1381E-002
 583.00,6.1546E-002
 583.50,6.1899E-002
 584.00,6.2231E-002
 584.50,6.2608E-002
 585.00,6.2896E-002
 585.50,6.3162E-002
 586.00,6.3470E-002
 586.50,6.3715E-002
 587.00,6.3923E-002
 587.50,6.4068E-002
 588.00,6.4257E-002
 588.50,6.4458E-002
 589.00,6.4717E-002
 589.50,6.4880E-002
 590.00,6.5061E-002
 590.50,6.5195E-002
 591.00,6.5436E-002
 591.50,6.5718E-002
 592.00,6.5980E-002
 592.50,6.6177E-002
 593.00,6.6238E-002
 593.50,6.6324E-002
 594.00,6.6555E-002
 594.50,6.6697E-002
 595.00,6.6826E-002
 595.50,6.6706E-002
 596.00,6.6823E-002
 596.50,6.7045E-002
 597.00,6.7344E-002
 597.50,6.7625E-002
 598.00,6.7845E-002
 598.50,6.7992E-002
 599.00,6.8084E-002
 599.50,6.8024E-002
 600.00,6.8021E-002
 600.50,6.7959E-002
 601.00,6.8043E-002
 601.50,6.8195E-002
 602.00,6.8413E-002
 602.50,6.8532E-002
 603.00,6.8529E-002
 603.50,6.8481E-002
 604.00,6.8453E-002
 604.50,6.8365E-002
 605.00,6.8320E-002
 605.50,6.8287E-002
 606.00,6.8285E-002
 606.50,6.8377E-002
 607.00,6.8359E-002
 607.50,6.8392E-002
 608.00,6.8390E-002
 608.50,6.8527E-002
 609.00,6.8652E-002
 609.50,6.8667E-002
 610.00,6.8607E-002
 610.50,6.8526E-002
 611.00,6.8506E-002
 611.50,6.8390E-002
 612.00,6.8367E-002
 612.50,6.8361E-002
 613.00,6.8377E-002
 613.50,6.8221E-002
 614.00,6.7975E-002
 614.50,6.7778E-002
 615.00,6.7749E-002
 615.50,6.7732E-002
 616.00,6.7760E-002
 616.50,6.7624E-002
 617.00,6.7464E-002
 617.50,6.7201E-002
 618.00,6.6972E-002
 618.50,6.6801E-002
 619.00,6.6536E-002
 619.50,6.6423E-002
 620.00,6.6287E-002
 620.50,6.6225E-002
 621.00,6.6035E-002
 621.50,6.5776E-002
 622.00,6.5556E-002
 622.50,6.5287E-002
 623.00,6.4995E-002
 623.50,6.4712E-002
 624.00,6.4488E-002
 624.50,6.4204E-002
 625.00,6.3933E-002
 625.50,6.3754E-002
 626.00,6.3663E-002
 626.50,6.3452E-002
 627.00,6.3026E-002
 627.50,6.2595E-002
 628.00,6.2257E-002
 628.50,6.2129E-002
 629.00,6.2025E-002
 629.50,6.1770E-002
 630.00,6.1492E-002
 630.50,6.1192E-002
 631.00,6.0936E-002
 631.50,6.0535E-002
 632.00,6.0061E-002
 632.50,5.9602E-002
 633.00,5.9225E-002
 633.50,5.8907E-002
 634.00,5.8718E-002
 634.50,5.8562E-002
 635.00,5.8314E-002
 635.50,5.7902E-002
 636.00,5.7410E-002
 636.50,5.6993E-002
 637.00,5.6674E-002
 637.50,5.6320E-002
 638.00,5.5993E-002
 638.50,5.5728E-002
 639.00,5.5419E-002
 639.50,5.4957E-002
 640.00,5.4375E-002
 640.50,5.3886E-002
 641.00,5.3524E-002
 641.50,5.3298E-002
 642.00,5.2993E-002
 642.50,5.2665E-002
 643.00,5.2190E-002
 643.50,5.1827E-002
 644.00,5.1576E-002
 644.50,5.1353E-002
 645.00,5.0959E-002
 645.50,5.0391E-002
 646.00,4.9878E-002
 646.50,4.9493E-002
 647.00,4.9183E-002
 647.50,4.8852E-002
 648.00,4.8356E-002
 648.50,4.7939E-002
 649.00,4.7594E-002
 649.50,4.7296E-002
 650.00,4.6791E-002
 650.50,4.6148E-002
 651.00,4.5618E-002
 651.50,4.5320E-002
 652.00,4.5012E-002
 652.50,4.4647E-002
 653.00,4.4186E-002
 653.50,4.3745E-002
 654.00,4.3344E-002
 654.50,4.2833E-002
 655.00,4.2442E-002
 655.50,4.2024E-002
 656.00,4.1707E-002
 656.50,4.1206E-002
 657.00,4.0809E-002
 657.50,4.0454E-002
 658.00,4.0180E-002
 658.50,3.9776E-002
 659.00,3.9323E-002
 659.50,3.8885E-002
 660.00,3.8467E-002
 660.50,3.8068E-002
 661.00,3.7671E-002
 661.50,3.7306E-002
 662.00,3.6853E-002
 662.50,3.6411E-002
 663.00,3.6052E-002
 663.50,3.5798E-002
 664.00,3.5436E-002
 664.50,3.4897E-002
 665.00,3.4315E-002
 665.50,3.3814E-002
 666.00,3.3469E-002
 666.50,3.3216E-002
 667.00,3.2961E-002
 667.50,3.2587E-002
 668.00,3.2168E-002
 668.50,3.1738E-002
 669.00,3.1324E-002
 669.50,3.0881E-002
 670.00,3.0487E-002
 670.50,3.0051E-002
 671.00,2.9624E-002
 671.50,2.9266E-002
 672.00,2.8970E-002
 672.50,2.8676E-002
 673.00,2.8328E-002
 673.50,2.7970E-002
 674.00,2.7571E-002
 674.50,2.7172E-002
 675.00,2.6868E-002
 675.50,2.6627E-002
 676.00,2.6357E-002
 676.50,2.6095E-002
 677.00,2.5775E-002
 677.50,2.5397E-002
 678.00,2.4965E-002
 678.50,2.4561E-002
 679.00,2.4352E-002
 679.50,2.4114E-002
 680.00,2.3885E-002
 680.50,2.3556E-002
 681.00,2.3300E-002
 681.50,2.3026E-002
 682.00,2.2739E-002
 682.50,2.2416E-002
 683.00,2.2167E-002
 683.50,2.1889E-002
 684.00,2.1549E-002
 684.50,2.1198E-002
 685.00,2.0930E-002
 685.50,2.0739E-002
 686.00,2.0514E-002
 686.50,2.0251E-002
 687.00,1.9937E-002
 687.50,1.9738E-002
 688.00,1.9496E-002
 688.50,1.9256E-002
 689.00,1.8863E-002
 689.50,1.8577E-002
 690.00,1.8409E-002
 690.50,1.8180E-002
 691.00,1.7893E-002
 691.50,1.7617E-002
 692.00,1.7463E-002
 692.50,1.7331E-002
 693.00,1.7075E-002
 693.50,1.6829E-002
 694.00,1.6598E-002
 694.50,1.6387E-002
 695.00,1.6134E-002
 695.50,1.5876E-002
 696.00,1.5624E-002
 696.50,1.5359E-002
 697.00,1.5099E-002
 697.50,1.4889E-002
 698.00,1.4746E-002
 698.50,1.4608E-002
 699.00,1.4478E-002
 699.50,1.4331E-002
 700.00,1.4148E-002
 700.50,1.3902E-002
 701.00,1.3651E-002
 701.50,1.3426E-002
 702.00,1.3183E-002
 702.50,1.2884E-002
 703.00,1.2601E-002
 703.50,1.2488E-002
 704.00,1.2361E-002
 704.50,1.2181E-002
 705.00,1.1992E-002
 705.50,1.1818E-002
 706.00,1.1663E-002
 706.50,1.1455E-002
 707.00,1.1297E-002
 707.50,1.1184E-002
 708.00,1.1046E-002
 708.50,1.0856E-002
 709.00,1.0633E-002
 709.50,1.0423E-002
 710.00,1.0226E-002
 710.50,9.9932E-003
 711.00,9.8778E-003
 711.50,9.8579E-003
 712.00,9.8416E-003
 712.50,9.6785E-003
 713.00,9.4281E-003
 713.50,9.2528E-003
 714.00,9.0998E-003
 714.50,9.0260E-003
 715.00,8.8567E-003
 715.50,8.6895E-003
 716.00,8.5438E-003
 716.50,8.4983E-003
 717.00,8.4110E-003
 717.50,8.2826E-003
 718.00,8.2140E-003
 718.50,8.2254E-003
 719.00,8.2396E-003
 719.50,8.1922E-003
 720.00,7.9871E-003
 720.50,7.7224E-003
 721.00,7.4793E-003
 721.50,7.2989E-003
 722.00,7.0927E-003
 722.50,6.9185E-003
 723.00,6.8090E-003
 723.50,6.7117E-003
 724.00,6.5662E-003
 724.50,6.4618E-003
 725.00,6.4064E-003
 725.50,6.3918E-003
 726.00,6.3738E-003
 726.50,6.2651E-003
 727.00,6.0798E-003
 727.50,5.9331E-003
 728.00,5.8610E-003
 728.50,5.7634E-003
 729.00,5.6552E-003
 729.50,5.6632E-003
 730.00,5.7158E-003
 730.50,5.6854E-003
 731.00,5.5390E-003
 731.50,5.3130E-003
 732.00,5.1695E-003
 732.50,5.0860E-003
 733.00,5.1461E-003
 733.50,5.1823E-003
 734.00,5.1371E-003
 734.50,5.0605E-003
 735.00,4.9538E-003
 735.50,4.7773E-003
 736.00,4.5815E-003
 736.50,4.4487E-003
 737.00,4.3537E-003
 737.50,4.2252E-003
 738.00,4.1360E-003
 738.50,4.0917E-003
 739.00,4.0468E-003
 739.50,4.0184E-003
 740.00,4.1009E-003
 740.50,4.1970E-003
 741.00,4.1258E-003
 741.50,3.9119E-003
 742.00,3.8591E-003
 742.50,3.8593E-003
 743.00,3.8576E-003
 743.50,3.6172E-003
 744.00,3.4200E-003
 744.50,3.1803E-003
 745.00,3.0641E-003
 745.50,2.9965E-003
 746.00,3.0153E-003
 746.50,3.0099E-003
 747.00,3.0611E-003
 747.50,3.0806E-003
 748.00,2.9249E-003
 748.50,2.7359E-003
 749.00,2.6749E-003
 749.50,2.8071E-003
 750.00,2.9356E-003
 750.50,3.0485E-003
 751.00,2.9980E-003
 751.50,2.8383E-003
 752.00,2.6580E-003
 752.50,2.5906E-003
 753.00,2.5365E-003
 753.50,2.4645E-003
 754.00,2.3817E-003
 754.50,2.3939E-003
 755.00,2.3970E-003
 755.50,2.3459E-003
 756.00,2.2799E-003
 756.50,2.2251E-003
 757.00,2.1192E-003
 757.50,2.0830E-003
 758.00,2.0854E-003
 758.50,2.0497E-003
 759.00,1.9627E-003
 759.50,1.7877E-003
 760.00,1.5840E-003
 760.50,1.6247E-003
 761.00,1.7901E-003
 761.50,1.8353E-003
 762.00,1.7290E-003
 762.50,1.6135E-003
 763.00,1.5343E-003
 763.50,1.5167E-003
 764.00,1.5794E-003
 764.50,1.5656E-003
 765.00,1.5387E-003
 765.50,1.5315E-003
 766.00,1.4333E-003
 766.50,1.3657E-003
 767.00,1.2225E-003
 767.50,1.1698E-003
 768.00,1.0491E-003
 768.50,1.0232E-003
 769.00,9.9967E-004
 769.50,9.3690E-004
 770.00,8.7167E-004
 770.50,8.5436E-004
 771.00,8.8525E-004
 771.50,8.4464E-004
 772.00,8.0358E-004
 772.50,6.5506E-004
 773.00,6.8127E-004
 773.50,7.9040E-004
 774.00,1.0046E-003
 774.50,1.0548E-003
 775.00,7.9550E-004
 775.50,6.7675E-004
 776.00,6.4242E-004
 776.50,7.2465E-004
 777.00,6.7310E-004
 777.50,5.6845E-004
 778.00,4.6198E-004
 778.50,5.8728E-004
 779.00,6.6361E-004
 779.50,6.7869E-004
 780.00,6.7302E-004
 780.50,7.6018E-004
 781.00,7.6399E-004
 781.50,6.7990E-004
 782.00,6.2069E-004
 782.50,6.0121E-004
 783.00,4.2282E-004
 783.50,2.7824E-004
 784.00,2.0349E-004
 784.50,1.6235E-004
 785.00,2.4443E-004
 785.50,3.2859E-004
 786.00,3.1165E-004
 786.50,1.5914E-004
 787.00,1.8213E-004
 787.50,1.9335E-004
 788.00,1.0358E-004
 788.50,3.4331E-005
 789.00,0.0000E+000
 789.50,0.0000E+000
 790.00,0.0000E+000
 790.50,0.0000E+000
 791.00,0.0000E+000
 791.50,4.0951E-005
 792.00,3.2386E-004
 792.50,3.5097E-004
 793.00,3.1644E-004
 793.50,1.1196E-005
 794.00,8.8961E-006
 794.50,1.9387E-005
 795.00,0.0000E+000
 795.50,0.0000E+000
 796.00,7.7350E-007
 796.50,0.0000E+000
 797.00,0.0000E+000
 797.50,0.0000E+000
 798.00,0.0000E+000
 798.50,0.0000E+000
 799.00,0.0000E+000
 799.50,0.0000E+000
 800.00,0.0000E+000
 800.50,0.0000E+000
 801.00,0.0000E+000
 801.50,0.0000E+000
 802.00,0.0000E+000
 802.50,0.0000E+000
 803.00,0.0000E+000
 803.50,0.0000E+000
 804.00,0.0000E+000
 804.50,0.0000E+000
 805.00,0.0000E+000
 805.50,0.0000E+000
 806.00,0.0000E+000
 806.50,0.0000E+000
 807.00,0.0000E+000
 807.50,0.0000E+000
 808.00,0.0000E+000
 808.50,0.0000E+000
 809.00,0.0000E+000
 809.50,0.0000E+000
 810.00,0.0000E+000
 810.50,0.0000E+000
 811.00,0.0000E+000
 811.50,0.0000E+000
 812.00,0.0000E+000
 812.50,0.0000E+000
 813.00,0.0000E+000
 813.50,0.0000E+000
 814.00,0.0000E+000
 814.50,0.0000E+000
 815.00,0.0000E+000
 815.50,0.0000E+000
 816.00,0.0000E+000
 816.50,0.0000E+000
 817.00,0.0000E+000
 817.50,0.0000E+000
 818.00,0.0000E+000
 818.50,0.0000E+000
 819.00,0.0000E+000
 819.50,0.0000E+000
 820.00,0.0000E+000
 820.50,0.0000E+000
 821.00,0.0000E+000
 821.50,0.0000E+000
 822.00,0.0000E+000
 822.50,0.0000E+000
 823.00,0.0000E+000
 823.50,0.0000E+000
 824.00,0.0000E+000
 824.50,0.0000E+000
 825.00,0.0000E+000
 825.50,0.0000E+000
 826.00,0.0000E+000
 826.50,0.0000E+000
 827.00,0.0000E+000
 827.50,0.0000E+000
 828.00,0.0000E+000
 828.50,0.0000E+000
 829.00,0.0000E+000
 829.50,0.0000E+000
 830.00,0.0000E+000
 830.50,0.0000E+000
 831.00,0.0000E+000
 831.50,0.0000E+000
 832.00,0.0000E+000
 832.50,0.0000E+000
 833.00,0.0000E+000
 833.50,0.0000E+000
 834.00,0.0000E+000
 834.50,0.0000E+000
 835.00,0.0000E+000
 835.50,0.0000E+000
 836.00,0.0000E+000
 836.50,0.0000E+000
 837.00,0.0000E+000
 837.50,0.0000E+000
 838.00,0.0000E+000
 838.50,0.0000E+000
 839.00,0.0000E+000
 839.50,0.0000E+000
 840.00,0.0000E+000
 840.50,0.0000E+000
 841.00,0.0000E+000
 841.50,0.0000E+000
 842.00,0.0000E+000
 842.50,0.0000E+000
 843.00,0.0000E+000
 843.50,0.0000E+000
 844.00,0.0000E+000
 844.50,0.0000E+000
 845.00,0.0000E+000
 845.50,0.0000E+000
 846.00,0.0000E+000
 846.50,0.0000E+000
 847.00,0.0000E+000
 847.50,0.0000E+000
 848.00,0.0000E+000
 848.50,0.0000E+000
 849.00,0.0000E+000
 849.50,0.0000E+000
 850.00,0.0000E+000
 850.50,0.0000E+000
 851.00,0.0000E+000
 851.50,0.0000E+000
 852.00,0.0000E+000
 852.50,0.0000E+000
 853.00,0.0000E+000
 853.50,0.0000E+000
 854.00,0.0000E+000
 854.50,0.0000E+000
 855.00,0.0000E+000
 855.50,0.0000E+000
 856.00,0.0000E+000
 856.50,0.0000E+000
 857.00,0.0000E+000
 857.50,0.0000E+000
 858.00,0.0000E+000
 858.50,0.0000E+000
 859.00,0.0000E+000
 859.50,0.0000E+000
 860.00,0.0000E+000
 860.50,0.0000E+000
 861.00,0.0000E+000
 861.50,0.0000E+000
 862.00,0.0000E+000
 862.50,0.0000E+000
 863.00,0.0000E+000
 863.50,0.0000E+000
 864.00,0.0000E+000
 864.50,0.0000E+000
 865.00,0.0000E+000
 865.50,0.0000E+000
 866.00,0.0000E+000
 866.50,0.0000E+000
 867.00,0.0000E+000
 867.50,0.0000E+000
 868.00,0.0000E+000
 868.50,0.0000E+000
 869.00,0.0000E+000
 869.50,0.0000E+000
 870.00,0.0000E+000
 870.50,0.0000E+000
 871.00,0.0000E+000
 871.50,0.0000E+000
 872.00,0.0000E+000
 872.50,0.0000E+000
 873.00,0.0000E+000
 873.50,0.0000E+000
 874.00,0.0000E+000
 874.50,0.0000E+000
 875.00,0.0000E+000
 875.50,0.0000E+000
 876.00,0.0000E+000
 876.50,0.0000E+000
 877.00,0.0000E+000
 877.50,0.0000E+000
 878.00,0.0000E+000
 878.50,0.0000E+000
 879.00,0.0000E+000
 879.50,0.0000E+000
 880.00,0.0000E+000
 880.50,0.0000E+000
 881.00,0.0000E+000
 881.50,0.0000E+000
 882.00,0.0000E+000
 882.50,0.0000E+000
 883.00,0.0000E+000
 883.50,0.0000E+000
 884.00,0.0000E+000
 884.50,0.0000E+000
 885.00,0.0000E+000
 885.50,0.0000E+000
 886.00,0.0000E+000
 886.50,0.0000E+000
 887.00,0.0000E+000
 887.50,0.0000E+000
 888.00,0.0000E+000
 888.50,0.0000E+000
 889.00,0.0000E+000
 889.50,0.0000E+000
 890.00,0.0000E+000
 890.50,0.0000E+000
 891.00,0.0000E+000
 891.50,0.0000E+000
 892.00,0.0000E+000
 892.50,0.0000E+000
 893.00,0.0000E+000
 893.50,0.0000E+000
 894.00,0.0000E+000
 894.50,0.0000E+000
 895.00,0.0000E+000
 895.50,0.0000E+000
 896.00,0.0000E+000
 896.50,0.0000E+000
 897.00,0.0000E+000
 897.50,0.0000E+000
 898.00,0.0000E+000
 898.50,0.0000E+000
 899.00,0.0000E+000
 899.50,0.0000E+000

