wavelength,relativeIntensity
 273.00,0.0000E+000
 273.50,0.0000E+000
 274.00,0.0000E+000
 274.50,0.0000E+000
 275.00,0.0000E+000
 275.50,0.0000E+000
 276.00,0.0000E+000
 276.50,0.0000E+000
 277.00,0.0000E+000
 277.50,0.0000E+000
 278.00,0.0000E+000
 278.50,0.0000E+000
 279.00,0.0000E+000
 279.50,0.0000E+000
 280.00,0.0000E+000
 280.50,0.0000E+000
 281.00,0.0000E+000
 281.50,0.0000E+000
 282.00,0.0000E+000
 282.50,0.0000E+000
 283.00,0.0000E+000
 283.50,0.0000E+000
 284.00,0.0000E+000
 284.50,0.0000E+000
 285.00,0.0000E+000
 285.50,0.0000E+000
 286.00,0.0000E+000
 286.50,0.0000E+000
 287.00,0.0000E+000
 287.50,0.0000E+000
 288.00,0.0000E+000
 288.50,0.0000E+000
 289.00,0.0000E+000
 289.50,0.0000E+000
 290.00,0.0000E+000
 290.50,0.0000E+000
 291.00,0.0000E+000
 291.50,0.0000E+000
 292.00,0.0000E+000
 292.50,0.0000E+000
 293.00,0.0000E+000
 293.50,0.0000E+000
 294.00,0.0000E+000
 294.50,0.0000E+000
 295.00,0.0000E+000
 295.50,0.0000E+000
 296.00,0.0000E+000
 296.50,0.0000E+000
 297.00,0.0000E+000
 297.50,0.0000E+000
 298.00,0.0000E+000
 298.50,0.0000E+000
 299.00,0.0000E+000
 299.50,0.0000E+000
 300.00,0.0000E+000
 300.50,0.0000E+000
 301.00,0.0000E+000
 301.50,0.0000E+000
 302.00,0.0000E+000
 302.50,0.0000E+000
 303.00,0.0000E+000
 303.50,0.0000E+000
 304.00,0.0000E+000
 304.50,0.0000E+000
 305.00,0.0000E+000
 305.50,0.0000E+000
 306.00,0.0000E+000
 306.50,0.0000E+000
 307.00,0.0000E+000
 307.50,0.0000E+000
 308.00,0.0000E+000
 308.50,0.0000E+000
 309.00,0.0000E+000
 309.50,0.0000E+000
 310.00,0.0000E+000
 310.50,0.0000E+000
 311.00,0.0000E+000
 311.50,0.0000E+000
 312.00,0.0000E+000
 312.50,0.0000E+000
 313.00,0.0000E+000
 313.50,0.0000E+000
 314.00,0.0000E+000
 314.50,0.0000E+000
 315.00,0.0000E+000
 315.50,0.0000E+000
 316.00,0.0000E+000
 316.50,0.0000E+000
 317.00,0.0000E+000
 317.50,0.0000E+000
 318.00,0.0000E+000
 318.50,0.0000E+000
 319.00,0.0000E+000
 319.50,0.0000E+000
 320.00,0.0000E+000
 320.50,0.0000E+000
 321.00,0.0000E+000
 321.50,0.0000E+000
 322.00,0.0000E+000
 322.50,0.0000E+000
 323.00,0.0000E+000
 323.50,0.0000E+000
 324.00,0.0000E+000
 324.50,0.0000E+000
 325.00,0.0000E+000
 325.50,0.0000E+000
 326.00,0.0000E+000
 326.50,0.0000E+000
 327.00,0.0000E+000
 327.50,0.0000E+000
 328.00,0.0000E+000
 328.50,0.0000E+000
 329.00,0.0000E+000
 329.50,0.0000E+000
 330.00,0.0000E+000
 330.50,0.0000E+000
 331.00,0.0000E+000
 331.50,0.0000E+000
 332.00,0.0000E+000
 332.50,0.0000E+000
 333.00,0.0000E+000
 333.50,0.0000E+000
 334.00,0.0000E+000
 334.50,0.0000E+000
 335.00,0.0000E+000
 335.50,0.0000E+000
 336.00,0.0000E+000
 336.50,0.0000E+000
 337.00,0.0000E+000
 337.50,0.0000E+000
 338.00,0.0000E+000
 338.50,0.0000E+000
 339.00,0.0000E+000
 339.50,0.0000E+000
 340.00,0.0000E+000
 340.50,0.0000E+000
 341.00,0.0000E+000
 341.50,0.0000E+000
 342.00,0.0000E+000
 342.50,0.0000E+000
 343.00,0.0000E+000
 343.50,0.0000E+000
 344.00,0.0000E+000
 344.50,0.0000E+000
 345.00,0.0000E+000
 345.50,0.0000E+000
 346.00,0.0000E+000
 346.50,0.0000E+000
 347.00,0.0000E+000
 347.50,0.0000E+000
 348.00,0.0000E+000
 348.50,0.0000E+000
 349.00,0.0000E+000
 349.50,0.0000E+000
 350.00,0.0000E+000
 350.50,0.0000E+000
 351.00,0.0000E+000
 351.50,0.0000E+000
 352.00,0.0000E+000
 352.50,0.0000E+000
 353.00,0.0000E+000
 353.50,0.0000E+000
 354.00,0.0000E+000
 354.50,0.0000E+000
 355.00,0.0000E+000
 355.50,0.0000E+000
 356.00,0.0000E+000
 356.50,0.0000E+000
 357.00,0.0000E+000
 357.50,0.0000E+000
 358.00,0.0000E+000
 358.50,0.0000E+000
 359.00,0.0000E+000
 359.50,0.0000E+000
 360.00,0.0000E+000
 360.50,0.0000E+000
 361.00,0.0000E+000
 361.50,0.0000E+000
 362.00,0.0000E+000
 362.50,0.0000E+000
 363.00,0.0000E+000
 363.50,0.0000E+000
 364.00,0.0000E+000
 364.50,0.0000E+000
 365.00,0.0000E+000
 365.50,0.0000E+000
 366.00,0.0000E+000
 366.50,0.0000E+000
 367.00,0.0000E+000
 367.50,0.0000E+000
 368.00,0.0000E+000
 368.50,0.0000E+000
 369.00,0.0000E+000
 369.50,0.0000E+000
 370.00,0.0000E+000
 370.50,0.0000E+000
 371.00,0.0000E+000
 371.50,0.0000E+000
 372.00,0.0000E+000
 372.50,0.0000E+000
 373.00,0.0000E+000
 373.50,0.0000E+000
 374.00,0.0000E+000
 374.50,0.0000E+000
 375.00,0.0000E+000
 375.50,0.0000E+000
 376.00,0.0000E+000
 376.50,0.0000E+000
 377.00,0.0000E+000
 377.50,0.0000E+000
 378.00,0.0000E+000
 378.50,0.0000E+000
 379.00,0.0000E+000
 379.50,0.0000E+000
 380.00,0.0000E+000
 380.50,0.0000E+000
 381.00,0.0000E+000
 381.50,0.0000E+000
 382.00,0.0000E+000
 382.50,0.0000E+000
 383.00,0.0000E+000
 383.50,0.0000E+000
 384.00,0.0000E+000
 384.50,0.0000E+000
 385.00,0.0000E+000
 385.50,0.0000E+000
 386.00,0.0000E+000
 386.50,0.0000E+000
 387.00,0.0000E+000
 387.50,0.0000E+000
 388.00,0.0000E+000
 388.50,0.0000E+000
 389.00,0.0000E+000
 389.50,0.0000E+000
 390.00,0.0000E+000
 390.50,0.0000E+000
 391.00,0.0000E+000
 391.50,0.0000E+000
 392.00,0.0000E+000
 392.50,0.0000E+000
 393.00,0.0000E+000
 393.50,0.0000E+000
 394.00,0.0000E+000
 394.50,0.0000E+000
 395.00,0.0000E+000
 395.50,0.0000E+000
 396.00,0.0000E+000
 396.50,0.0000E+000
 397.00,0.0000E+000
 397.50,0.0000E+000
 398.00,0.0000E+000
 398.50,0.0000E+000
 399.00,0.0000E+000
 399.50,0.0000E+000
 400.00,0.0000E+000
 400.50,0.0000E+000
 401.00,0.0000E+000
 401.50,0.0000E+000
 402.00,0.0000E+000
 402.50,0.0000E+000
 403.00,0.0000E+000
 403.50,0.0000E+000
 404.00,0.0000E+000
 404.50,3.2790E-006
 405.00,2.8107E-007
 405.50,0.0000E+000
 406.00,0.0000E+000
 406.50,0.0000E+000
 407.00,0.0000E+000
 407.50,0.0000E+000
 408.00,0.0000E+000
 408.50,0.0000E+000
 409.00,0.0000E+000
 409.50,0.0000E+000
 410.00,0.0000E+000
 410.50,0.0000E+000
 411.00,0.0000E+000
 411.50,0.0000E+000
 412.00,5.8335E-006
 412.50,4.1846E-005
 413.00,1.0341E-004
 413.50,1.8277E-004
 414.00,1.8663E-004
 414.50,1.6648E-004
 415.00,1.1877E-004
 415.50,7.8126E-005
 416.00,1.0748E-004
 416.50,1.7787E-004
 417.00,2.9250E-004
 417.50,3.8765E-004
 418.00,4.3171E-004
 418.50,4.4293E-004
 419.00,4.5350E-004
 419.50,5.4051E-004
 420.00,6.5845E-004
 420.50,7.5803E-004
 421.00,8.2793E-004
 421.50,8.8861E-004
 422.00,9.5278E-004
 422.50,1.0197E-003
 423.00,1.1215E-003
 423.50,1.1843E-003
 424.00,1.2377E-003
 424.50,1.3012E-003
 425.00,1.3730E-003
 425.50,1.4778E-003
 426.00,1.5858E-003
 426.50,1.6567E-003
 427.00,1.7530E-003
 427.50,1.8495E-003
 428.00,1.9495E-003
 428.50,2.0773E-003
 429.00,2.1953E-003
 429.50,2.3608E-003
 430.00,2.4727E-003
 430.50,2.5497E-003
 431.00,2.6102E-003
 431.50,2.7049E-003
 432.00,2.8774E-003
 432.50,3.0581E-003
 433.00,3.1846E-003
 433.50,3.2440E-003
 434.00,3.3240E-003
 434.50,3.4697E-003
 435.00,3.6344E-003
 435.50,3.7656E-003
 436.00,3.8550E-003
 436.50,3.9405E-003
 437.00,4.0721E-003
 437.50,4.1926E-003
 438.00,4.2832E-003
 438.50,4.3631E-003
 439.00,4.4833E-003
 439.50,4.6200E-003
 440.00,4.8137E-003
 440.50,4.9775E-003
 441.00,5.0830E-003
 441.50,5.1385E-003
 442.00,5.1272E-003
 442.50,5.0810E-003
 443.00,4.9928E-003
 443.50,4.8893E-003
 444.00,4.7964E-003
 444.50,4.7662E-003
 445.00,4.7424E-003
 445.50,4.6153E-003
 446.00,4.4569E-003
 446.50,4.2668E-003
 447.00,4.1006E-003
 447.50,3.9915E-003
 448.00,3.8380E-003
 448.50,3.6826E-003
 449.00,3.4378E-003
 449.50,3.1910E-003
 450.00,2.9256E-003
 450.50,2.7482E-003
 451.00,2.5686E-003
 451.50,2.3839E-003
 452.00,2.1913E-003
 452.50,2.0360E-003
 453.00,1.9498E-003
 453.50,1.8193E-003
 454.00,1.7032E-003
 454.50,1.5774E-003
 455.00,1.5008E-003
 455.50,1.4597E-003
 456.00,1.3760E-003
 456.50,1.2982E-003
 457.00,1.2261E-003
 457.50,1.1544E-003
 458.00,1.1257E-003
 458.50,1.0631E-003
 459.00,9.9702E-004
 459.50,9.4726E-004
 460.00,8.9360E-004
 460.50,8.4936E-004
 461.00,8.3590E-004
 461.50,8.1200E-004
 462.00,8.1940E-004
 462.50,7.8621E-004
 463.00,7.1916E-004
 463.50,6.5921E-004
 464.00,6.1238E-004
 464.50,5.6156E-004
 465.00,5.0081E-004
 465.50,4.6285E-004
 466.00,4.5546E-004
 466.50,4.8024E-004
 467.00,4.5607E-004
 467.50,4.4789E-004
 468.00,4.6066E-004
 468.50,4.7847E-004
 469.00,5.0155E-004
 469.50,4.7611E-004
 470.00,4.1893E-004
 470.50,3.9363E-004
 471.00,3.8651E-004
 471.50,3.9045E-004
 472.00,4.1355E-004
 472.50,4.0304E-004
 473.00,3.9120E-004
 473.50,3.9023E-004
 474.00,3.6341E-004
 474.50,3.5850E-004
 475.00,3.2094E-004
 475.50,3.1676E-004
 476.00,3.0918E-004
 476.50,3.1012E-004
 477.00,2.4974E-004
 477.50,1.9923E-004
 478.00,1.5743E-004
 478.50,1.8424E-004
 479.00,2.3783E-004
 479.50,3.2148E-004
 480.00,3.7289E-004
 480.50,3.7589E-004
 481.00,3.4516E-004
 481.50,3.2343E-004
 482.00,3.3508E-004
 482.50,3.6343E-004
 483.00,3.5960E-004
 483.50,3.7123E-004
 484.00,3.7643E-004
 484.50,3.7360E-004
 485.00,3.6582E-004
 485.50,3.6720E-004
 486.00,4.0684E-004
 486.50,4.4962E-004
 487.00,4.9780E-004
 487.50,5.3200E-004
 488.00,5.6443E-004
 488.50,5.7081E-004
 489.00,5.7225E-004
 489.50,5.7830E-004
 490.00,6.0676E-004
 490.50,6.5088E-004
 491.00,7.1299E-004
 491.50,7.7589E-004
 492.00,8.0785E-004
 492.50,8.3208E-004
 493.00,8.5456E-004
 493.50,9.0530E-004
 494.00,9.7143E-004
 494.50,1.0234E-003
 495.00,1.0704E-003
 495.50,1.1280E-003
 496.00,1.1893E-003
 496.50,1.2682E-003
 497.00,1.3398E-003
 497.50,1.3953E-003
 498.00,1.4545E-003
 498.50,1.5098E-003
 499.00,1.5762E-003
 499.50,1.6538E-003
 500.00,1.7480E-003
 500.50,1.8448E-003
 501.00,1.9328E-003
 501.50,2.0249E-003
 502.00,2.0945E-003
 502.50,2.1607E-003
 503.00,2.2256E-003
 503.50,2.3056E-003
 504.00,2.4059E-003
 504.50,2.5053E-003
 505.00,2.5936E-003
 505.50,2.6944E-003
 506.00,2.8168E-003
 506.50,2.9141E-003
 507.00,2.9977E-003
 507.50,3.0818E-003
 508.00,3.1823E-003
 508.50,3.3021E-003
 509.00,3.4297E-003
 509.50,3.5270E-003
 510.00,3.6260E-003
 510.50,3.7204E-003
 511.00,3.7792E-003
 511.50,3.8422E-003
 512.00,3.9185E-003
 512.50,4.0326E-003
 513.00,4.1743E-003
 513.50,4.2884E-003
 514.00,4.3956E-003
 514.50,4.5026E-003
 515.00,4.6084E-003
 515.50,4.6939E-003
 516.00,4.7864E-003
 516.50,4.8387E-003
 517.00,4.9279E-003
 517.50,5.0243E-003
 518.00,5.1232E-003
 518.50,5.2120E-003
 519.00,5.2658E-003
 519.50,5.3195E-003
 520.00,5.3800E-003
 520.50,5.4454E-003
 521.00,5.4880E-003
 521.50,5.5454E-003
 522.00,5.6185E-003
 522.50,5.7110E-003
 523.00,5.8148E-003
 523.50,5.8847E-003
 524.00,5.9620E-003
 524.50,6.0154E-003
 525.00,6.0554E-003
 525.50,6.1001E-003
 526.00,6.1699E-003
 526.50,6.2386E-003
 527.00,6.3213E-003
 527.50,6.3737E-003
 528.00,6.4147E-003
 528.50,6.4732E-003
 529.00,6.4985E-003
 529.50,6.5574E-003
 530.00,6.6143E-003
 530.50,6.6629E-003
 531.00,6.7111E-003
 531.50,6.7493E-003
 532.00,6.7920E-003
 532.50,6.8183E-003
 533.00,6.8386E-003
 533.50,6.8526E-003
 534.00,6.8667E-003
 534.50,6.8534E-003
 535.00,6.8501E-003
 535.50,6.8564E-003
 536.00,6.9300E-003
 536.50,7.0017E-003
 537.00,7.0377E-003
 537.50,7.0542E-003
 538.00,7.0439E-003
 538.50,7.0651E-003
 539.00,7.0795E-003
 539.50,7.0746E-003
 540.00,7.0691E-003
 540.50,7.0961E-003
 541.00,7.1435E-003
 541.50,7.2065E-003
 542.00,7.2387E-003
 542.50,7.2332E-003
 543.00,7.2081E-003
 543.50,7.1903E-003
 544.00,7.1967E-003
 544.50,7.2261E-003
 545.00,7.2143E-003
 545.50,7.2196E-003
 546.00,7.2086E-003
 546.50,7.2588E-003
 547.00,7.2677E-003
 547.50,7.2584E-003
 548.00,7.2376E-003
 548.50,7.2175E-003
 549.00,7.2093E-003
 549.50,7.2070E-003
 550.00,7.2003E-003
 550.50,7.2133E-003
 551.00,7.2465E-003
 551.50,7.2632E-003
 552.00,7.2849E-003
 552.50,7.2664E-003
 553.00,7.2760E-003
 553.50,7.2621E-003
 554.00,7.2943E-003
 554.50,7.2857E-003
 555.00,7.3306E-003
 555.50,7.3319E-003
 556.00,7.3729E-003
 556.50,7.3852E-003
 557.00,7.3862E-003
 557.50,7.3634E-003
 558.00,7.3320E-003
 558.50,7.3263E-003
 559.00,7.3511E-003
 559.50,7.3734E-003
 560.00,7.3517E-003
 560.50,7.2956E-003
 561.00,7.2263E-003
 561.50,7.2043E-003
 562.00,7.2083E-003
 562.50,7.2124E-003
 563.00,7.2097E-003
 563.50,7.2343E-003
 564.00,7.3147E-003
 564.50,7.3936E-003
 565.00,7.4045E-003
 565.50,7.3914E-003
 566.00,7.3356E-003
 566.50,7.2849E-003
 567.00,7.2308E-003
 567.50,7.1798E-003
 568.00,7.1816E-003
 568.50,7.1576E-003
 569.00,7.1603E-003
 569.50,7.2141E-003
 570.00,7.2738E-003
 570.50,7.3147E-003
 571.00,7.2816E-003
 571.50,7.2278E-003
 572.00,7.1985E-003
 572.50,7.1710E-003
 573.00,7.1565E-003
 573.50,7.1531E-003
 574.00,7.1545E-003
 574.50,7.1574E-003
 575.00,7.1826E-003
 575.50,7.1924E-003
 576.00,7.2177E-003
 576.50,7.2153E-003
 577.00,7.2040E-003
 577.50,7.2283E-003
 578.00,7.2273E-003
 578.50,7.2564E-003
 579.00,7.2746E-003
 579.50,7.2717E-003
 580.00,7.2643E-003
 580.50,7.2503E-003
 581.00,7.2576E-003
 581.50,7.2647E-003
 582.00,7.2768E-003
 582.50,7.3056E-003
 583.00,7.3655E-003
 583.50,7.3764E-003
 584.00,7.4000E-003
 584.50,7.4296E-003
 585.00,7.4777E-003
 585.50,7.5227E-003
 586.00,7.5610E-003
 586.50,7.6166E-003
 587.00,7.6168E-003
 587.50,7.6406E-003
 588.00,7.6950E-003
 588.50,7.8165E-003
 589.00,7.8987E-003
 589.50,7.9651E-003
 590.00,7.9928E-003
 590.50,8.0760E-003
 591.00,8.1474E-003
 591.50,8.2231E-003
 592.00,8.2887E-003
 592.50,8.3376E-003
 593.00,8.4549E-003
 593.50,8.5696E-003
 594.00,8.7258E-003
 594.50,8.9127E-003
 595.00,9.0478E-003
 595.50,9.1884E-003
 596.00,9.3428E-003
 596.50,9.5468E-003
 597.00,9.7698E-003
 597.50,9.9582E-003
 598.00,1.0189E-002
 598.50,1.0435E-002
 599.00,1.0670E-002
 599.50,1.0902E-002
 600.00,1.1170E-002
 600.50,1.1463E-002
 601.00,1.1827E-002
 601.50,1.2182E-002
 602.00,1.2505E-002
 602.50,1.2786E-002
 603.00,1.3083E-002
 603.50,1.3449E-002
 604.00,1.3811E-002
 604.50,1.4201E-002
 605.00,1.4631E-002
 605.50,1.5141E-002
 606.00,1.5646E-002
 606.50,1.6134E-002
 607.00,1.6628E-002
 607.50,1.7128E-002
 608.00,1.7672E-002
 608.50,1.8197E-002
 609.00,1.8775E-002
 609.50,1.9364E-002
 610.00,1.9976E-002
 610.50,2.0625E-002
 611.00,2.1314E-002
 611.50,2.2080E-002
 612.00,2.2814E-002
 612.50,2.3577E-002
 613.00,2.4378E-002
 613.50,2.5264E-002
 614.00,2.6141E-002
 614.50,2.7009E-002
 615.00,2.7829E-002
 615.50,2.8658E-002
 616.00,2.9413E-002
 616.50,3.0140E-002
 617.00,3.0853E-002
 617.50,3.1545E-002
 618.00,3.2122E-002
 618.50,3.2572E-002
 619.00,3.2968E-002
 619.50,3.3303E-002
 620.00,3.3383E-002
 620.50,3.3197E-002
 621.00,3.2787E-002
 621.50,3.2254E-002
 622.00,3.1369E-002
 622.50,3.0202E-002
 623.00,2.8766E-002
 623.50,2.7217E-002
 624.00,2.5577E-002
 624.50,2.3941E-002
 625.00,2.2320E-002
 625.50,2.0741E-002
 626.00,1.9283E-002
 626.50,1.7904E-002
 627.00,1.6583E-002
 627.50,1.5284E-002
 628.00,1.4090E-002
 628.50,1.3034E-002
 629.00,1.2093E-002
 629.50,1.1286E-002
 630.00,1.0614E-002
 630.50,9.9867E-003
 631.00,9.3840E-003
 631.50,8.8291E-003
 632.00,8.3248E-003
 632.50,7.8165E-003
 633.00,7.3553E-003
 633.50,6.9289E-003
 634.00,6.5622E-003
 634.50,6.1584E-003
 635.00,5.8070E-003
 635.50,5.5332E-003
 636.00,5.3186E-003
 636.50,5.0869E-003
 637.00,4.8617E-003
 637.50,4.5946E-003
 638.00,4.3743E-003
 638.50,4.1225E-003
 639.00,3.9701E-003
 639.50,3.8415E-003
 640.00,3.7528E-003
 640.50,3.6280E-003
 641.00,3.4755E-003
 641.50,3.3354E-003
 642.00,3.2441E-003
 642.50,3.1668E-003
 643.00,3.0782E-003
 643.50,2.9424E-003
 644.00,2.8184E-003
 644.50,2.6838E-003
 645.00,2.5972E-003
 645.50,2.4860E-003
 646.00,2.4265E-003
 646.50,2.3823E-003
 647.00,2.3655E-003
 647.50,2.3420E-003
 648.00,2.2575E-003
 648.50,2.1616E-003
 649.00,2.1019E-003
 649.50,2.1222E-003
 650.00,2.1781E-003
 650.50,2.1747E-003
 651.00,2.0909E-003
 651.50,1.9545E-003
 652.00,1.8277E-003
 652.50,1.7949E-003
 653.00,1.7827E-003
 653.50,1.8109E-003
 654.00,1.7875E-003
 654.50,1.7794E-003
 655.00,1.7572E-003
 655.50,1.7125E-003
 656.00,1.6393E-003
 656.50,1.5859E-003
 657.00,1.4941E-003
 657.50,1.4324E-003
 658.00,1.3884E-003
 658.50,1.4078E-003
 659.00,1.4588E-003
 659.50,1.4310E-003
 660.00,1.3832E-003
 660.50,1.2898E-003
 661.00,1.2680E-003
 661.50,1.2703E-003
 662.00,1.2426E-003
 662.50,1.1721E-003
 663.00,1.1182E-003
 663.50,1.1282E-003
 664.00,1.1792E-003
 664.50,1.1513E-003
 665.00,1.0859E-003
 665.50,1.0306E-003
 666.00,9.8061E-004
 666.50,9.7417E-004
 667.00,9.4286E-004
 667.50,9.5925E-004
 668.00,9.6217E-004
 668.50,9.7694E-004
 669.00,9.9407E-004
 669.50,1.0498E-003
 670.00,1.0633E-003
 670.50,1.0833E-003
 671.00,1.0254E-003
 671.50,9.7712E-004
 672.00,9.3010E-004
 672.50,9.1204E-004
 673.00,8.7853E-004
 673.50,8.6077E-004
 674.00,7.8765E-004
 674.50,7.8890E-004
 675.00,7.6026E-004
 675.50,7.7746E-004
 676.00,7.3842E-004
 676.50,7.3411E-004
 677.00,7.2337E-004
 677.50,7.1518E-004
 678.00,6.6453E-004
 678.50,6.6049E-004
 679.00,6.4792E-004
 679.50,6.6818E-004
 680.00,6.3068E-004
 680.50,6.2177E-004
 681.00,6.2102E-004
 681.50,5.9220E-004
 682.00,5.4359E-004
 682.50,4.8649E-004
 683.00,5.0149E-004
 683.50,5.0825E-004
 684.00,4.5188E-004
 684.50,3.8367E-004
 685.00,3.5669E-004
 685.50,3.9537E-004
 686.00,5.0453E-004
 686.50,5.4589E-004
 687.00,5.0165E-004
 687.50,3.8032E-004
 688.00,3.7339E-004
 688.50,3.9242E-004
 689.00,4.1071E-004
 689.50,3.8239E-004
 690.00,3.8886E-004
 690.50,3.7822E-004
 691.00,3.4639E-004
 691.50,3.1781E-004
 692.00,3.3320E-004
 692.50,3.4777E-004
 693.00,3.3341E-004
 693.50,2.8011E-004
 694.00,2.3009E-004
 694.50,1.8507E-004
 695.00,2.1900E-004
 695.50,1.9860E-004
 696.00,1.8478E-004
 696.50,1.2650E-004
 697.00,1.4983E-004
 697.50,1.5749E-004
 698.00,1.9509E-004
 698.50,2.0306E-004
 699.00,2.2720E-004
 699.50,2.2777E-004
 700.00,2.0832E-004
 700.50,1.9888E-004
 701.00,2.1148E-004
 701.50,2.5075E-004
 702.00,2.5153E-004
 702.50,2.4733E-004
 703.00,2.1905E-004
 703.50,1.5489E-004
 704.00,8.8315E-005
 704.50,1.0178E-004
 705.00,1.2530E-004
 705.50,1.2661E-004
 706.00,3.7877E-005
 706.50,0.0000E+000
 707.00,0.0000E+000
 707.50,1.3135E-004
 708.00,2.6212E-004
 708.50,3.0468E-004
 709.00,2.7634E-004
 709.50,1.7401E-004
 710.00,1.1046E-004
 710.50,7.3995E-005
 711.00,1.0225E-004
 711.50,8.6839E-005
 712.00,3.2133E-005
 712.50,2.3059E-006
 713.00,1.7295E-005
 713.50,2.9779E-005
 714.00,1.1197E-005
 714.50,0.0000E+000
 715.00,0.0000E+000
 715.50,0.0000E+000
 716.00,0.0000E+000
 716.50,0.0000E+000
 717.00,0.0000E+000
 717.50,0.0000E+000
 718.00,0.0000E+000
 718.50,0.0000E+000
 719.00,0.0000E+000
 719.50,0.0000E+000
 720.00,0.0000E+000
 720.50,0.0000E+000
 721.00,0.0000E+000
 721.50,0.0000E+000
 722.00,0.0000E+000
 722.50,0.0000E+000
 723.00,0.0000E+000
 723.50,0.0000E+000
 724.00,0.0000E+000
 724.50,0.0000E+000
 725.00,0.0000E+000
 725.50,0.0000E+000
 726.00,0.0000E+000
 726.50,0.0000E+000
 727.00,0.0000E+000
 727.50,0.0000E+000
 728.00,0.0000E+000
 728.50,0.0000E+000
 729.00,0.0000E+000
 729.50,0.0000E+000
 730.00,0.0000E+000
 730.50,0.0000E+000
 731.00,0.0000E+000
 731.50,0.0000E+000
 732.00,0.0000E+000
 732.50,0.0000E+000
 733.00,0.0000E+000
 733.50,0.0000E+000
 734.00,0.0000E+000
 734.50,0.0000E+000
 735.00,0.0000E+000
 735.50,0.0000E+000
 736.00,0.0000E+000
 736.50,0.0000E+000
 737.00,0.0000E+000
 737.50,0.0000E+000
 738.00,0.0000E+000
 738.50,0.0000E+000
 739.00,0.0000E+000
 739.50,0.0000E+000
 740.00,0.0000E+000
 740.50,0.0000E+000
 741.00,0.0000E+000
 741.50,0.0000E+000
 742.00,0.0000E+000
 742.50,0.0000E+000
 743.00,0.0000E+000
 743.50,0.0000E+000
 744.00,0.0000E+000
 744.50,0.0000E+000
 745.00,0.0000E+000
 745.50,0.0000E+000
 746.00,0.0000E+000
 746.50,0.0000E+000
 747.00,0.0000E+000
 747.50,0.0000E+000
 748.00,0.0000E+000
 748.50,0.0000E+000
 749.00,0.0000E+000
 749.50,0.0000E+000
 750.00,0.0000E+000
 750.50,1.7438E-004
 751.00,4.0676E-004
 751.50,3.1362E-004
 752.00,0.0000E+000
 752.50,0.0000E+000
 753.00,0.0000E+000
 753.50,0.0000E+000
 754.00,0.0000E+000
 754.50,0.0000E+000
 755.00,0.0000E+000
 755.50,0.0000E+000
 756.00,0.0000E+000
 756.50,0.0000E+000
 757.00,0.0000E+000
 757.50,0.0000E+000
 758.00,0.0000E+000
 758.50,0.0000E+000
 759.00,0.0000E+000
 759.50,0.0000E+000
 760.00,0.0000E+000
 760.50,0.0000E+000
 761.00,0.0000E+000
 761.50,0.0000E+000
 762.00,0.0000E+000
 762.50,0.0000E+000
 763.00,0.0000E+000
 763.50,0.0000E+000
 764.00,0.0000E+000
 764.50,0.0000E+000
 765.00,0.0000E+000
 765.50,0.0000E+000
 766.00,0.0000E+000
 766.50,0.0000E+000
 767.00,0.0000E+000
 767.50,0.0000E+000
 768.00,0.0000E+000
 768.50,0.0000E+000
 769.00,0.0000E+000
 769.50,0.0000E+000
 770.00,0.0000E+000
 770.50,0.0000E+000
 771.00,0.0000E+000
 771.50,0.0000E+000
 772.00,0.0000E+000
 772.50,0.0000E+000
 773.00,0.0000E+000
 773.50,0.0000E+000
 774.00,0.0000E+000
 774.50,0.0000E+000
 775.00,0.0000E+000
 775.50,0.0000E+000
 776.00,0.0000E+000
 776.50,0.0000E+000
 777.00,0.0000E+000
 777.50,0.0000E+000
 778.00,0.0000E+000
 778.50,0.0000E+000
 779.00,0.0000E+000
 779.50,0.0000E+000
 780.00,0.0000E+000
 780.50,0.0000E+000
 781.00,0.0000E+000
 781.50,0.0000E+000
 782.00,0.0000E+000
 782.50,0.0000E+000
 783.00,0.0000E+000
 783.50,0.0000E+000
 784.00,0.0000E+000
 784.50,0.0000E+000
 785.00,0.0000E+000
 785.50,0.0000E+000
 786.00,0.0000E+000
 786.50,0.0000E+000
 787.00,0.0000E+000
 787.50,0.0000E+000
 788.00,0.0000E+000
 788.50,0.0000E+000
 789.00,0.0000E+000
 789.50,0.0000E+000
 790.00,0.0000E+000
 790.50,0.0000E+000
 791.00,0.0000E+000
 791.50,0.0000E+000
 792.00,0.0000E+000
 792.50,0.0000E+000
 793.00,0.0000E+000
 793.50,0.0000E+000
 794.00,0.0000E+000
 794.50,0.0000E+000
 795.00,0.0000E+000
 795.50,0.0000E+000
 796.00,0.0000E+000
 796.50,0.0000E+000
 797.00,0.0000E+000
 797.50,0.0000E+000
 798.00,0.0000E+000
 798.50,0.0000E+000
 799.00,0.0000E+000
 799.50,0.0000E+000
 800.00,0.0000E+000
 800.50,0.0000E+000
 801.00,0.0000E+000
 801.50,0.0000E+000
 802.00,0.0000E+000
 802.50,0.0000E+000
 803.00,0.0000E+000
 803.50,0.0000E+000
 804.00,0.0000E+000
 804.50,0.0000E+000
 805.00,0.0000E+000
 805.50,0.0000E+000
 806.00,0.0000E+000
 806.50,0.0000E+000
 807.00,0.0000E+000
 807.50,0.0000E+000
 808.00,0.0000E+000
 808.50,0.0000E+000
 809.00,0.0000E+000
 809.50,0.0000E+000
 810.00,0.0000E+000
 810.50,0.0000E+000
 811.00,0.0000E+000
 811.50,0.0000E+000
 812.00,0.0000E+000
 812.50,0.0000E+000
 813.00,0.0000E+000
 813.50,0.0000E+000
 814.00,0.0000E+000
 814.50,0.0000E+000
 815.00,0.0000E+000
 815.50,0.0000E+000
 816.00,0.0000E+000
 816.50,0.0000E+000
 817.00,0.0000E+000
 817.50,0.0000E+000
 818.00,0.0000E+000
 818.50,0.0000E+000
 819.00,0.0000E+000
 819.50,0.0000E+000
 820.00,0.0000E+000
 820.50,0.0000E+000
 821.00,0.0000E+000
 821.50,0.0000E+000
 822.00,0.0000E+000
 822.50,0.0000E+000
 823.00,0.0000E+000
 823.50,0.0000E+000
 824.00,0.0000E+000
 824.50,0.0000E+000
 825.00,0.0000E+000
 825.50,0.0000E+000
 826.00,0.0000E+000
 826.50,0.0000E+000
 827.00,0.0000E+000
 827.50,0.0000E+000
 828.00,0.0000E+000
 828.50,0.0000E+000
 829.00,0.0000E+000
 829.50,0.0000E+000
 830.00,0.0000E+000
 830.50,0.0000E+000
 831.00,0.0000E+000
 831.50,0.0000E+000
 832.00,0.0000E+000
 832.50,0.0000E+000
 833.00,0.0000E+000
 833.50,0.0000E+000
 834.00,0.0000E+000
 834.50,0.0000E+000
 835.00,0.0000E+000
 835.50,0.0000E+000
 836.00,0.0000E+000
 836.50,0.0000E+000
 837.00,0.0000E+000
 837.50,0.0000E+000
 838.00,0.0000E+000
 838.50,0.0000E+000
 839.00,0.0000E+000
 839.50,0.0000E+000
 840.00,0.0000E+000
 840.50,0.0000E+000
 841.00,0.0000E+000
 841.50,0.0000E+000
 842.00,0.0000E+000
 842.50,0.0000E+000
 843.00,0.0000E+000
 843.50,0.0000E+000
 844.00,0.0000E+000
 844.50,0.0000E+000
 845.00,0.0000E+000
 845.50,0.0000E+000
 846.00,0.0000E+000
 846.50,0.0000E+000
 847.00,0.0000E+000
 847.50,0.0000E+000
 848.00,0.0000E+000
 848.50,0.0000E+000
 849.00,0.0000E+000
 849.50,0.0000E+000
 850.00,0.0000E+000
 850.50,0.0000E+000
 851.00,0.0000E+000
 851.50,0.0000E+000
 852.00,0.0000E+000
 852.50,0.0000E+000
 853.00,0.0000E+000
 853.50,0.0000E+000
 854.00,0.0000E+000
 854.50,0.0000E+000
 855.00,0.0000E+000
 855.50,0.0000E+000
 856.00,0.0000E+000
 856.50,0.0000E+000
 857.00,0.0000E+000
 857.50,0.0000E+000
 858.00,0.0000E+000
 858.50,0.0000E+000
 859.00,0.0000E+000
 859.50,0.0000E+000
 860.00,0.0000E+000
 860.50,0.0000E+000
 861.00,0.0000E+000
 861.50,0.0000E+000
 862.00,0.0000E+000
 862.50,0.0000E+000
 863.00,0.0000E+000
 863.50,0.0000E+000
 864.00,0.0000E+000
 864.50,0.0000E+000
 865.00,0.0000E+000
 865.50,0.0000E+000
 866.00,0.0000E+000
 866.50,0.0000E+000
 867.00,0.0000E+000
 867.50,0.0000E+000
 868.00,0.0000E+000
 868.50,0.0000E+000
 869.00,0.0000E+000
 869.50,0.0000E+000
 870.00,0.0000E+000
 870.50,0.0000E+000
 871.00,0.0000E+000
 871.50,0.0000E+000
 872.00,0.0000E+000
 872.50,0.0000E+000
 873.00,0.0000E+000
 873.50,0.0000E+000
 874.00,0.0000E+000
 874.50,0.0000E+000
 875.00,0.0000E+000
 875.50,0.0000E+000
 876.00,0.0000E+000
 876.50,0.0000E+000
 877.00,0.0000E+000
 877.50,0.0000E+000
 878.00,0.0000E+000
 878.50,0.0000E+000
 879.00,0.0000E+000
 879.50,0.0000E+000
 880.00,0.0000E+000
 880.50,0.0000E+000
 881.00,0.0000E+000
 881.50,0.0000E+000
 882.00,0.0000E+000
 882.50,0.0000E+000
 883.00,0.0000E+000
 883.50,0.0000E+000
 884.00,0.0000E+000
 884.50,0.0000E+000
 885.00,0.0000E+000
 885.50,0.0000E+000
 886.00,0.0000E+000
 886.50,0.0000E+000
 887.00,0.0000E+000
 887.50,0.0000E+000
 888.00,0.0000E+000
 888.50,0.0000E+000
 889.00,0.0000E+000
 889.50,0.0000E+000
 890.00,0.0000E+000
 890.50,0.0000E+000
 891.00,0.0000E+000
 891.50,0.0000E+000
 892.00,0.0000E+000
 892.50,0.0000E+000
 893.00,0.0000E+000
 893.50,0.0000E+000
 894.00,0.0000E+000
 894.50,0.0000E+000
 895.00,0.0000E+000
 895.50,0.0000E+000
 896.00,0.0000E+000
 896.50,0.0000E+000
 897.00,0.0000E+000
 897.50,0.0000E+000
 898.00,0.0000E+000
 898.50,0.0000E+000
 899.00,0.0000E+000
 899.50,0.0000E+000

