wavelength,relativeIntensity
 273.00,0.0000E+000
 273.50,0.0000E+000
 274.00,0.0000E+000
 274.50,0.0000E+000
 275.00,0.0000E+000
 275.50,0.0000E+000
 276.00,0.0000E+000
 276.50,0.0000E+000
 277.00,0.0000E+000
 277.50,0.0000E+000
 278.00,0.0000E+000
 278.50,0.0000E+000
 279.00,0.0000E+000
 279.50,0.0000E+000
 280.00,0.0000E+000
 280.50,0.0000E+000
 281.00,0.0000E+000
 281.50,0.0000E+000
 282.00,0.0000E+000
 282.50,0.0000E+000
 283.00,0.0000E+000
 283.50,0.0000E+000
 284.00,0.0000E+000
 284.50,0.0000E+000
 285.00,0.0000E+000
 285.50,0.0000E+000
 286.00,0.0000E+000
 286.50,0.0000E+000
 287.00,0.0000E+000
 287.50,0.0000E+000
 288.00,0.0000E+000
 288.50,0.0000E+000
 289.00,0.0000E+000
 289.50,0.0000E+000
 290.00,0.0000E+000
 290.50,0.0000E+000
 291.00,0.0000E+000
 291.50,0.0000E+000
 292.00,0.0000E+000
 292.50,0.0000E+000
 293.00,0.0000E+000
 293.50,0.0000E+000
 294.00,0.0000E+000
 294.50,0.0000E+000
 295.00,0.0000E+000
 295.50,0.0000E+000
 296.00,0.0000E+000
 296.50,0.0000E+000
 297.00,0.0000E+000
 297.50,0.0000E+000
 298.00,0.0000E+000
 298.50,0.0000E+000
 299.00,0.0000E+000
 299.50,0.0000E+000
 300.00,0.0000E+000
 300.50,0.0000E+000
 301.00,0.0000E+000
 301.50,0.0000E+000
 302.00,0.0000E+000
 302.50,0.0000E+000
 303.00,0.0000E+000
 303.50,0.0000E+000
 304.00,0.0000E+000
 304.50,0.0000E+000
 305.00,0.0000E+000
 305.50,0.0000E+000
 306.00,0.0000E+000
 306.50,0.0000E+000
 307.00,0.0000E+000
 307.50,0.0000E+000
 308.00,0.0000E+000
 308.50,0.0000E+000
 309.00,0.0000E+000
 309.50,0.0000E+000
 310.00,0.0000E+000
 310.50,0.0000E+000
 311.00,0.0000E+000
 311.50,1.5766E-004
 312.00,4.4143E-004
 312.50,1.4257E-004
 313.00,2.8228E-006
 313.50,0.0000E+000
 314.00,0.0000E+000
 314.50,0.0000E+000
 315.00,0.0000E+000
 315.50,0.0000E+000
 316.00,0.0000E+000
 316.50,0.0000E+000
 317.00,0.0000E+000
 317.50,0.0000E+000
 318.00,0.0000E+000
 318.50,0.0000E+000
 319.00,0.0000E+000
 319.50,0.0000E+000
 320.00,0.0000E+000
 320.50,0.0000E+000
 321.00,0.0000E+000
 321.50,0.0000E+000
 322.00,0.0000E+000
 322.50,0.0000E+000
 323.00,0.0000E+000
 323.50,0.0000E+000
 324.00,0.0000E+000
 324.50,0.0000E+000
 325.00,0.0000E+000
 325.50,0.0000E+000
 326.00,0.0000E+000
 326.50,0.0000E+000
 327.00,0.0000E+000
 327.50,0.0000E+000
 328.00,0.0000E+000
 328.50,0.0000E+000
 329.00,0.0000E+000
 329.50,0.0000E+000
 330.00,0.0000E+000
 330.50,0.0000E+000
 331.00,0.0000E+000
 331.50,0.0000E+000
 332.00,0.0000E+000
 332.50,0.0000E+000
 333.00,0.0000E+000
 333.50,0.0000E+000
 334.00,0.0000E+000
 334.50,0.0000E+000
 335.00,0.0000E+000
 335.50,0.0000E+000
 336.00,0.0000E+000
 336.50,0.0000E+000
 337.00,0.0000E+000
 337.50,0.0000E+000
 338.00,0.0000E+000
 338.50,0.0000E+000
 339.00,0.0000E+000
 339.50,0.0000E+000
 340.00,0.0000E+000
 340.50,0.0000E+000
 341.00,0.0000E+000
 341.50,0.0000E+000
 342.00,0.0000E+000
 342.50,0.0000E+000
 343.00,0.0000E+000
 343.50,0.0000E+000
 344.00,0.0000E+000
 344.50,0.0000E+000
 345.00,0.0000E+000
 345.50,0.0000E+000
 346.00,0.0000E+000
 346.50,0.0000E+000
 347.00,0.0000E+000
 347.50,0.0000E+000
 348.00,0.0000E+000
 348.50,0.0000E+000
 349.00,0.0000E+000
 349.50,0.0000E+000
 350.00,0.0000E+000
 350.50,0.0000E+000
 351.00,0.0000E+000
 351.50,0.0000E+000
 352.00,0.0000E+000
 352.50,0.0000E+000
 353.00,0.0000E+000
 353.50,0.0000E+000
 354.00,0.0000E+000
 354.50,0.0000E+000
 355.00,0.0000E+000
 355.50,0.0000E+000
 356.00,0.0000E+000
 356.50,0.0000E+000
 357.00,0.0000E+000
 357.50,0.0000E+000
 358.00,0.0000E+000
 358.50,0.0000E+000
 359.00,0.0000E+000
 359.50,0.0000E+000
 360.00,0.0000E+000
 360.50,0.0000E+000
 361.00,0.0000E+000
 361.50,0.0000E+000
 362.00,0.0000E+000
 362.50,0.0000E+000
 363.00,0.0000E+000
 363.50,0.0000E+000
 364.00,0.0000E+000
 364.50,0.0000E+000
 365.00,0.0000E+000
 365.50,0.0000E+000
 366.00,0.0000E+000
 366.50,0.0000E+000
 367.00,0.0000E+000
 367.50,0.0000E+000
 368.00,0.0000E+000
 368.50,0.0000E+000
 369.00,0.0000E+000
 369.50,0.0000E+000
 370.00,0.0000E+000
 370.50,0.0000E+000
 371.00,0.0000E+000
 371.50,0.0000E+000
 372.00,0.0000E+000
 372.50,0.0000E+000
 373.00,0.0000E+000
 373.50,0.0000E+000
 374.00,0.0000E+000
 374.50,0.0000E+000
 375.00,0.0000E+000
 375.50,0.0000E+000
 376.00,0.0000E+000
 376.50,0.0000E+000
 377.00,0.0000E+000
 377.50,0.0000E+000
 378.00,0.0000E+000
 378.50,0.0000E+000
 379.00,0.0000E+000
 379.50,0.0000E+000
 380.00,0.0000E+000
 380.50,0.0000E+000
 381.00,0.0000E+000
 381.50,0.0000E+000
 382.00,0.0000E+000
 382.50,0.0000E+000
 383.00,0.0000E+000
 383.50,0.0000E+000
 384.00,0.0000E+000
 384.50,0.0000E+000
 385.00,0.0000E+000
 385.50,0.0000E+000
 386.00,0.0000E+000
 386.50,0.0000E+000
 387.00,0.0000E+000
 387.50,0.0000E+000
 388.00,0.0000E+000
 388.50,0.0000E+000
 389.00,0.0000E+000
 389.50,0.0000E+000
 390.00,0.0000E+000
 390.50,0.0000E+000
 391.00,0.0000E+000
 391.50,0.0000E+000
 392.00,0.0000E+000
 392.50,0.0000E+000
 393.00,0.0000E+000
 393.50,0.0000E+000
 394.00,0.0000E+000
 394.50,0.0000E+000
 395.00,0.0000E+000
 395.50,0.0000E+000
 396.00,0.0000E+000
 396.50,0.0000E+000
 397.00,0.0000E+000
 397.50,0.0000E+000
 398.00,0.0000E+000
 398.50,0.0000E+000
 399.00,0.0000E+000
 399.50,0.0000E+000
 400.00,0.0000E+000
 400.50,0.0000E+000
 401.00,0.0000E+000
 401.50,0.0000E+000
 402.00,0.0000E+000
 402.50,0.0000E+000
 403.00,0.0000E+000
 403.50,0.0000E+000
 404.00,0.0000E+000
 404.50,0.0000E+000
 405.00,0.0000E+000
 405.50,0.0000E+000
 406.00,0.0000E+000
 406.50,2.0866E-004
 407.00,2.5708E-004
 407.50,2.5399E-004
 408.00,4.6420E-005
 408.50,0.0000E+000
 409.00,0.0000E+000
 409.50,0.0000E+000
 410.00,0.0000E+000
 410.50,3.4967E-005
 411.00,3.0349E-004
 411.50,6.3269E-004
 412.00,9.2873E-004
 412.50,1.4067E-003
 413.00,1.7881E-003
 413.50,2.0127E-003
 414.00,2.2191E-003
 414.50,2.2847E-003
 415.00,2.7036E-003
 415.50,3.0603E-003
 416.00,3.3065E-003
 416.50,3.6543E-003
 417.00,3.6635E-003
 417.50,3.8362E-003
 418.00,4.1211E-003
 418.50,4.5750E-003
 419.00,5.2978E-003
 419.50,6.1140E-003
 420.00,6.8365E-003
 420.50,7.5052E-003
 421.00,8.2929E-003
 421.50,8.9538E-003
 422.00,9.2312E-003
 422.50,9.8746E-003
 423.00,1.0585E-002
 423.50,1.1266E-002
 424.00,1.1856E-002
 424.50,1.2136E-002
 425.00,1.3049E-002
 425.50,1.4423E-002
 426.00,1.5566E-002
 426.50,1.6556E-002
 427.00,1.7350E-002
 427.50,1.8524E-002
 428.00,2.0152E-002
 428.50,2.1733E-002
 429.00,2.3171E-002
 429.50,2.4938E-002
 430.00,2.6333E-002
 430.50,2.7964E-002
 431.00,2.9524E-002
 431.50,3.1276E-002
 432.00,3.3494E-002
 432.50,3.5592E-002
 433.00,3.7203E-002
 433.50,3.8780E-002
 434.00,4.0468E-002
 434.50,4.2153E-002
 435.00,4.4283E-002
 435.50,4.6499E-002
 436.00,4.9153E-002
 436.50,5.1936E-002
 437.00,5.5173E-002
 437.50,5.8301E-002
 438.00,6.1419E-002
 438.50,6.4573E-002
 439.00,6.7532E-002
 439.50,7.1047E-002
 440.00,7.4969E-002
 440.50,7.9413E-002
 441.00,8.4147E-002
 441.50,8.9047E-002
 442.00,9.4142E-002
 442.50,9.9119E-002
 443.00,1.0417E-001
 443.50,1.0944E-001
 444.00,1.1469E-001
 444.50,1.2052E-001
 445.00,1.2608E-001
 445.50,1.3196E-001
 446.00,1.3740E-001
 446.50,1.4250E-001
 447.00,1.4718E-001
 447.50,1.5106E-001
 448.00,1.5474E-001
 448.50,1.5786E-001
 449.00,1.6088E-001
 449.50,1.6293E-001
 450.00,1.6448E-001
 450.50,1.6540E-001
 451.00,1.6587E-001
 451.50,1.6491E-001
 452.00,1.6290E-001
 452.50,1.6039E-001
 453.00,1.5785E-001
 453.50,1.5520E-001
 454.00,1.5191E-001
 454.50,1.4785E-001
 455.00,1.4376E-001
 455.50,1.3930E-001
 456.00,1.3464E-001
 456.50,1.2987E-001
 457.00,1.2583E-001
 457.50,1.2226E-001
 458.00,1.1870E-001
 458.50,1.1539E-001
 459.00,1.1173E-001
 459.50,1.0816E-001
 460.00,1.0450E-001
 460.50,1.0140E-001
 461.00,9.9045E-002
 461.50,9.7489E-002
 462.00,9.5977E-002
 462.50,9.3975E-002
 463.00,9.1740E-002
 463.50,8.9372E-002
 464.00,8.7508E-002
 464.50,8.5560E-002
 465.00,8.3666E-002
 465.50,8.1474E-002
 466.00,7.9323E-002
 466.50,7.7813E-002
 467.00,7.6830E-002
 467.50,7.6171E-002
 468.00,7.5125E-002
 468.50,7.3769E-002
 469.00,7.2180E-002
 469.50,7.0496E-002
 470.00,6.9010E-002
 470.50,6.7628E-002
 471.00,6.6095E-002
 471.50,6.4333E-002
 472.00,6.2488E-002
 472.50,6.0525E-002
 473.00,5.9212E-002
 473.50,5.8393E-002
 474.00,5.7587E-002
 474.50,5.6475E-002
 475.00,5.5180E-002
 475.50,5.4090E-002
 476.00,5.3252E-002
 476.50,5.2676E-002
 477.00,5.2314E-002
 477.50,5.2021E-002
 478.00,5.1770E-002
 478.50,5.1483E-002
 479.00,5.0972E-002
 479.50,5.0678E-002
 480.00,5.0464E-002
 480.50,5.0739E-002
 481.00,5.1217E-002
 481.50,5.1886E-002
 482.00,5.2324E-002
 482.50,5.2310E-002
 483.00,5.2082E-002
 483.50,5.2005E-002
 484.00,5.1975E-002
 484.50,5.2345E-002
 485.00,5.2735E-002
 485.50,5.2888E-002
 486.00,5.3211E-002
 486.50,5.3440E-002
 487.00,5.3959E-002
 487.50,5.4676E-002
 488.00,5.5332E-002
 488.50,5.6221E-002
 489.00,5.7145E-002
 489.50,5.7929E-002
 490.00,5.8648E-002
 490.50,5.9186E-002
 491.00,5.9915E-002
 491.50,6.0806E-002
 492.00,6.1824E-002
 492.50,6.2862E-002
 493.00,6.3870E-002
 493.50,6.4673E-002
 494.00,6.5663E-002
 494.50,6.6692E-002
 495.00,6.7799E-002
 495.50,6.9009E-002
 496.00,7.0231E-002
 496.50,7.1409E-002
 497.00,7.2829E-002
 497.50,7.4247E-002
 498.00,7.5901E-002
 498.50,7.7639E-002
 499.00,7.9147E-002
 499.50,8.0779E-002
 500.00,8.2304E-002
 500.50,8.3756E-002
 501.00,8.4866E-002
 501.50,8.5889E-002
 502.00,8.7051E-002
 502.50,8.8567E-002
 503.00,9.0199E-002
 503.50,9.1889E-002
 504.00,9.3500E-002
 504.50,9.5079E-002
 505.00,9.6368E-002
 505.50,9.7572E-002
 506.00,9.8701E-002
 506.50,1.0009E-001
 507.00,1.0183E-001
 507.50,1.0372E-001
 508.00,1.0530E-001
 508.50,1.0652E-001
 509.00,1.0738E-001
 509.50,1.0856E-001
 510.00,1.1013E-001
 510.50,1.1213E-001
 511.00,1.1372E-001
 511.50,1.1514E-001
 512.00,1.1602E-001
 512.50,1.1682E-001
 513.00,1.1777E-001
 513.50,1.1899E-001
 514.00,1.2027E-001
 514.50,1.2194E-001
 515.00,1.2338E-001
 515.50,1.2459E-001
 516.00,1.2591E-001
 516.50,1.2692E-001
 517.00,1.2807E-001
 517.50,1.2904E-001
 518.00,1.3000E-001
 518.50,1.3094E-001
 519.00,1.3200E-001
 519.50,1.3288E-001
 520.00,1.3410E-001
 520.50,1.3531E-001
 521.00,1.3645E-001
 521.50,1.3724E-001
 522.00,1.3784E-001
 522.50,1.3866E-001
 523.00,1.3982E-001
 523.50,1.4114E-001
 524.00,1.4250E-001
 524.50,1.4370E-001
 525.00,1.4482E-001
 525.50,1.4554E-001
 526.00,1.4588E-001
 526.50,1.4604E-001
 527.00,1.4674E-001
 527.50,1.4795E-001
 528.00,1.4945E-001
 528.50,1.5082E-001
 529.00,1.5185E-001
 529.50,1.5288E-001
 530.00,1.5381E-001
 530.50,1.5495E-001
 531.00,1.5573E-001
 531.50,1.5661E-001
 532.00,1.5746E-001
 532.50,1.5850E-001
 533.00,1.5934E-001
 533.50,1.6026E-001
 534.00,1.6124E-001
 534.50,1.6256E-001
 535.00,1.6384E-001
 535.50,1.6457E-001
 536.00,1.6512E-001
 536.50,1.6585E-001
 537.00,1.6702E-001
 537.50,1.6831E-001
 538.00,1.6931E-001
 538.50,1.7037E-001
 539.00,1.7140E-001
 539.50,1.7266E-001
 540.00,1.7389E-001
 540.50,1.7491E-001
 541.00,1.7588E-001
 541.50,1.7670E-001
 542.00,1.7778E-001
 542.50,1.7899E-001
 543.00,1.8032E-001
 543.50,1.8144E-001
 544.00,1.8247E-001
 544.50,1.8311E-001
 545.00,1.8427E-001
 545.50,1.8518E-001
 546.00,1.8602E-001
 546.50,1.8683E-001
 547.00,1.8791E-001
 547.50,1.8951E-001
 548.00,1.9086E-001
 548.50,1.9194E-001
 549.00,1.9266E-001
 549.50,1.9340E-001
 550.00,1.9411E-001
 550.50,1.9538E-001
 551.00,1.9693E-001
 551.50,1.9853E-001
 552.00,1.9989E-001
 552.50,2.0076E-001
 553.00,2.0182E-001
 553.50,2.0267E-001
 554.00,2.0376E-001
 554.50,2.0469E-001
 555.00,2.0561E-001
 555.50,2.0688E-001
 556.00,2.0824E-001
 556.50,2.0977E-001
 557.00,2.1109E-001
 557.50,2.1269E-001
 558.00,2.1422E-001
 558.50,2.1548E-001
 559.00,2.1671E-001
 559.50,2.1775E-001
 560.00,2.1894E-001
 560.50,2.2001E-001
 561.00,2.2108E-001
 561.50,2.2241E-001
 562.00,2.2358E-001
 562.50,2.2476E-001
 563.00,2.2575E-001
 563.50,2.2701E-001
 564.00,2.2800E-001
 564.50,2.2909E-001
 565.00,2.3013E-001
 565.50,2.3130E-001
 566.00,2.3238E-001
 566.50,2.3334E-001
 567.00,2.3425E-001
 567.50,2.3526E-001
 568.00,2.3683E-001
 568.50,2.3807E-001
 569.00,2.3935E-001
 569.50,2.4046E-001
 570.00,2.4134E-001
 570.50,2.4254E-001
 571.00,2.4362E-001
 571.50,2.4475E-001
 572.00,2.4518E-001
 572.50,2.4564E-001
 573.00,2.4630E-001
 573.50,2.4766E-001
 574.00,2.4920E-001
 574.50,2.5063E-001
 575.00,2.5184E-001
 575.50,2.5269E-001
 576.00,2.5339E-001
 576.50,2.5373E-001
 577.00,2.5439E-001
 577.50,2.5540E-001
 578.00,2.5663E-001
 578.50,2.5791E-001
 579.00,2.5886E-001
 579.50,2.5972E-001
 580.00,2.6031E-001
 580.50,2.6049E-001
 581.00,2.6126E-001
 581.50,2.6261E-001
 582.00,2.6413E-001
 582.50,2.6496E-001
 583.00,2.6524E-001
 583.50,2.6595E-001
 584.00,2.6650E-001
 584.50,2.6751E-001
 585.00,2.6781E-001
 585.50,2.6858E-001
 586.00,2.6912E-001
 586.50,2.6976E-001
 587.00,2.7027E-001
 587.50,2.7106E-001
 588.00,2.7232E-001
 588.50,2.7384E-001
 589.00,2.7504E-001
 589.50,2.7563E-001
 590.00,2.7581E-001
 590.50,2.7586E-001
 591.00,2.7616E-001
 591.50,2.7701E-001
 592.00,2.7730E-001
 592.50,2.7795E-001
 593.00,2.7834E-001
 593.50,2.7869E-001
 594.00,2.7918E-001
 594.50,2.7977E-001
 595.00,2.8046E-001
 595.50,2.8070E-001
 596.00,2.8061E-001
 596.50,2.8044E-001
 597.00,2.8088E-001
 597.50,2.8120E-001
 598.00,2.8164E-001
 598.50,2.8193E-001
 599.00,2.8193E-001
 599.50,2.8208E-001
 600.00,2.8196E-001
 600.50,2.8161E-001
 601.00,2.8126E-001
 601.50,2.8112E-001
 602.00,2.8124E-001
 602.50,2.8141E-001
 603.00,2.8126E-001
 603.50,2.8135E-001
 604.00,2.8137E-001
 604.50,2.8150E-001
 605.00,2.8183E-001
 605.50,2.8198E-001
 606.00,2.8203E-001
 606.50,2.8159E-001
 607.00,2.8100E-001
 607.50,2.8027E-001
 608.00,2.8012E-001
 608.50,2.8020E-001
 609.00,2.8043E-001
 609.50,2.8052E-001
 610.00,2.8033E-001
 610.50,2.7999E-001
 611.00,2.7957E-001
 611.50,2.7893E-001
 612.00,2.7834E-001
 612.50,2.7775E-001
 613.00,2.7722E-001
 613.50,2.7727E-001
 614.00,2.7737E-001
 614.50,2.7706E-001
 615.00,2.7620E-001
 615.50,2.7496E-001
 616.00,2.7421E-001
 616.50,2.7350E-001
 617.00,2.7235E-001
 617.50,2.7068E-001
 618.00,2.6925E-001
 618.50,2.6894E-001
 619.00,2.6854E-001
 619.50,2.6836E-001
 620.00,2.6709E-001
 620.50,2.6624E-001
 621.00,2.6489E-001
 621.50,2.6392E-001
 622.00,2.6321E-001
 622.50,2.6270E-001
 623.00,2.6267E-001
 623.50,2.6189E-001
 624.00,2.6123E-001
 624.50,2.5965E-001
 625.00,2.5810E-001
 625.50,2.5606E-001
 626.00,2.5462E-001
 626.50,2.5386E-001
 627.00,2.5331E-001
 627.50,2.5256E-001
 628.00,2.5126E-001
 628.50,2.5058E-001
 629.00,2.4973E-001
 629.50,2.4903E-001
 630.00,2.4768E-001
 630.50,2.4605E-001
 631.00,2.4429E-001
 631.50,2.4276E-001
 632.00,2.4161E-001
 632.50,2.4055E-001
 633.00,2.3995E-001
 633.50,2.3909E-001
 634.00,2.3841E-001
 634.50,2.3706E-001
 635.00,2.3596E-001
 635.50,2.3446E-001
 636.00,2.3318E-001
 636.50,2.3192E-001
 637.00,2.3040E-001
 637.50,2.2878E-001
 638.00,2.2683E-001
 638.50,2.2522E-001
 639.00,2.2388E-001
 639.50,2.2295E-001
 640.00,2.2182E-001
 640.50,2.2034E-001
 641.00,2.1809E-001
 641.50,2.1624E-001
 642.00,2.1428E-001
 642.50,2.1307E-001
 643.00,2.1225E-001
 643.50,2.1097E-001
 644.00,2.0917E-001
 644.50,2.0676E-001
 645.00,2.0481E-001
 645.50,2.0342E-001
 646.00,2.0274E-001
 646.50,2.0196E-001
 647.00,2.0079E-001
 647.50,1.9886E-001
 648.00,1.9682E-001
 648.50,1.9480E-001
 649.00,1.9316E-001
 649.50,1.9189E-001
 650.00,1.9079E-001
 650.50,1.8929E-001
 651.00,1.8769E-001
 651.50,1.8567E-001
 652.00,1.8426E-001
 652.50,1.8268E-001
 653.00,1.8139E-001
 653.50,1.7913E-001
 654.00,1.7723E-001
 654.50,1.7604E-001
 655.00,1.7510E-001
 655.50,1.7359E-001
 656.00,1.7119E-001
 656.50,1.6889E-001
 657.00,1.6757E-001
 657.50,1.6663E-001
 658.00,1.6523E-001
 658.50,1.6376E-001
 659.00,1.6199E-001
 659.50,1.6058E-001
 660.00,1.5866E-001
 660.50,1.5676E-001
 661.00,1.5482E-001
 661.50,1.5363E-001
 662.00,1.5205E-001
 662.50,1.5105E-001
 663.00,1.4927E-001
 663.50,1.4769E-001
 664.00,1.4572E-001
 664.50,1.4385E-001
 665.00,1.4237E-001
 665.50,1.4108E-001
 666.00,1.3992E-001
 666.50,1.3844E-001
 667.00,1.3653E-001
 667.50,1.3457E-001
 668.00,1.3351E-001
 668.50,1.3264E-001
 669.00,1.3191E-001
 669.50,1.3003E-001
 670.00,1.2845E-001
 670.50,1.2688E-001
 671.00,1.2570E-001
 671.50,1.2455E-001
 672.00,1.2349E-001
 672.50,1.2158E-001
 673.00,1.1959E-001
 673.50,1.1807E-001
 674.00,1.1714E-001
 674.50,1.1572E-001
 675.00,1.1389E-001
 675.50,1.1254E-001
 676.00,1.1160E-001
 676.50,1.1055E-001
 677.00,1.0945E-001
 677.50,1.0837E-001
 678.00,1.0724E-001
 678.50,1.0628E-001
 679.00,1.0523E-001
 679.50,1.0394E-001
 680.00,1.0181E-001
 680.50,9.9597E-002
 681.00,9.8070E-002
 681.50,9.6848E-002
 682.00,9.6271E-002
 682.50,9.5269E-002
 683.00,9.4425E-002
 683.50,9.3563E-002
 684.00,9.2505E-002
 684.50,9.1753E-002
 685.00,9.0591E-002
 685.50,8.9238E-002
 686.00,8.7287E-002
 686.50,8.5747E-002
 687.00,8.4893E-002
 687.50,8.4182E-002
 688.00,8.3295E-002
 688.50,8.2491E-002
 689.00,8.1194E-002
 689.50,8.0036E-002
 690.00,7.8471E-002
 690.50,7.8120E-002
 691.00,7.7827E-002
 691.50,7.7391E-002
 692.00,7.6208E-002
 692.50,7.4572E-002
 693.00,7.3449E-002
 693.50,7.2686E-002
 694.00,7.1834E-002
 694.50,7.0465E-002
 695.00,6.9233E-002
 695.50,6.7891E-002
 696.00,6.7092E-002
 696.50,6.6444E-002
 697.00,6.6002E-002
 697.50,6.5084E-002
 698.00,6.3932E-002
 698.50,6.2680E-002
 699.00,6.1729E-002
 699.50,6.1032E-002
 700.00,6.0536E-002
 700.50,5.9658E-002
 701.00,5.8373E-002
 701.50,5.7651E-002
 702.00,5.7538E-002
 702.50,5.7164E-002
 703.00,5.6244E-002
 703.50,5.5022E-002
 704.00,5.4154E-002
 704.50,5.3464E-002
 705.00,5.2563E-002
 705.50,5.1940E-002
 706.00,5.1024E-002
 706.50,5.0259E-002
 707.00,4.9344E-002
 707.50,4.8542E-002
 708.00,4.7334E-002
 708.50,4.6677E-002
 709.00,4.6471E-002
 709.50,4.6615E-002
 710.00,4.6042E-002
 710.50,4.4862E-002
 711.00,4.3449E-002
 711.50,4.2419E-002
 712.00,4.2069E-002
 712.50,4.1830E-002
 713.00,4.1243E-002
 713.50,4.0094E-002
 714.00,3.9647E-002
 714.50,3.9502E-002
 715.00,3.9261E-002
 715.50,3.8291E-002
 716.00,3.7551E-002
 716.50,3.7335E-002
 717.00,3.6777E-002
 717.50,3.5882E-002
 718.00,3.5006E-002
 718.50,3.4810E-002
 719.00,3.4494E-002
 719.50,3.4144E-002
 720.00,3.3556E-002
 720.50,3.3105E-002
 721.00,3.2338E-002
 721.50,3.1687E-002
 722.00,3.1399E-002
 722.50,3.1068E-002
 723.00,3.0687E-002
 723.50,3.0017E-002
 724.00,2.9079E-002
 724.50,2.8160E-002
 725.00,2.7753E-002
 725.50,2.8298E-002
 726.00,2.8545E-002
 726.50,2.7909E-002
 727.00,2.7099E-002
 727.50,2.6175E-002
 728.00,2.5876E-002
 728.50,2.5543E-002
 729.00,2.5760E-002
 729.50,2.5380E-002
 730.00,2.4678E-002
 730.50,2.3762E-002
 731.00,2.3651E-002
 731.50,2.3741E-002
 732.00,2.3512E-002
 732.50,2.2774E-002
 733.00,2.2186E-002
 733.50,2.1821E-002
 734.00,2.1344E-002
 734.50,2.0811E-002
 735.00,1.9949E-002
 735.50,1.9774E-002
 736.00,1.9616E-002
 736.50,1.9203E-002
 737.00,1.8524E-002
 737.50,1.7794E-002
 738.00,1.8147E-002
 738.50,1.8180E-002
 739.00,1.7963E-002
 739.50,1.6848E-002
 740.00,1.5797E-002
 740.50,1.4919E-002
 741.00,1.5336E-002
 741.50,1.5515E-002
 742.00,1.5500E-002
 742.50,1.5101E-002
 743.00,1.5011E-002
 743.50,1.4937E-002
 744.00,1.4700E-002
 744.50,1.4518E-002
 745.00,1.4335E-002
 745.50,1.3709E-002
 746.00,1.3037E-002
 746.50,1.2219E-002
 747.00,1.2031E-002
 747.50,1.2039E-002
 748.00,1.2396E-002
 748.50,1.2270E-002
 749.00,1.1557E-002
 749.50,1.1250E-002
 750.00,1.0846E-002
 750.50,1.1881E-002
 751.00,1.2460E-002
 751.50,1.2286E-002
 752.00,1.1073E-002
 752.50,1.0619E-002
 753.00,1.0459E-002
 753.50,1.0189E-002
 754.00,9.5346E-003
 754.50,9.1987E-003
 755.00,9.5397E-003
 755.50,1.0090E-002
 756.00,9.1696E-003
 756.50,8.2272E-003
 757.00,7.5465E-003
 757.50,7.7119E-003
 758.00,7.3496E-003
 758.50,6.9697E-003
 759.00,7.1715E-003
 759.50,7.7186E-003
 760.00,7.3472E-003
 760.50,6.6786E-003
 761.00,5.5293E-003
 761.50,5.6276E-003
 762.00,6.0150E-003
 762.50,6.4232E-003
 763.00,5.7887E-003
 763.50,4.5878E-003
 764.00,4.0499E-003
 764.50,4.1855E-003
 765.00,4.3916E-003
 765.50,4.6763E-003
 766.00,5.0830E-003
 766.50,5.1862E-003
 767.00,4.7482E-003
 767.50,3.6221E-003
 768.00,3.4867E-003
 768.50,3.5248E-003
 769.00,4.0692E-003
 769.50,3.9725E-003
 770.00,3.5543E-003
 770.50,3.0408E-003
 771.00,2.4220E-003
 771.50,2.2577E-003
 772.00,2.3674E-003
 772.50,2.3436E-003
 773.00,2.2820E-003
 773.50,2.5920E-003
 774.00,2.4348E-003
 774.50,2.4422E-003
 775.00,2.7864E-003
 775.50,3.0884E-003
 776.00,2.3512E-003
 776.50,2.2853E-003
 777.00,3.2579E-003
 777.50,3.9560E-003
 778.00,3.1989E-003
 778.50,1.8866E-003
 779.00,1.5139E-003
 779.50,1.2340E-003
 780.00,1.3645E-003
 780.50,1.3129E-003
 781.00,1.7519E-003
 781.50,1.7201E-003
 782.00,1.7155E-003
 782.50,1.3920E-003
 783.00,1.3957E-003
 783.50,6.2560E-004
 784.00,2.9954E-005
 784.50,0.0000E+000
 785.00,0.0000E+000
 785.50,0.0000E+000
 786.00,0.0000E+000
 786.50,1.5736E-005
 787.00,0.0000E+000
 787.50,0.0000E+000
 788.00,1.1982E-004
 788.50,1.7994E-004
 789.00,9.5152E-005
 789.50,0.0000E+000
 790.00,0.0000E+000
 790.50,0.0000E+000
 791.00,0.0000E+000
 791.50,0.0000E+000
 792.00,0.0000E+000
 792.50,0.0000E+000
 793.00,0.0000E+000
 793.50,0.0000E+000
 794.00,0.0000E+000
 794.50,0.0000E+000
 795.00,0.0000E+000
 795.50,0.0000E+000
 796.00,0.0000E+000
 796.50,0.0000E+000
 797.00,0.0000E+000
 797.50,0.0000E+000
 798.00,0.0000E+000
 798.50,0.0000E+000
 799.00,0.0000E+000
 799.50,0.0000E+000
 800.00,0.0000E+000
 800.50,0.0000E+000
 801.00,0.0000E+000
 801.50,0.0000E+000
 802.00,0.0000E+000
 802.50,0.0000E+000
 803.00,0.0000E+000
 803.50,0.0000E+000
 804.00,0.0000E+000
 804.50,0.0000E+000
 805.00,0.0000E+000
 805.50,0.0000E+000
 806.00,0.0000E+000
 806.50,0.0000E+000
 807.00,0.0000E+000
 807.50,0.0000E+000
 808.00,0.0000E+000
 808.50,0.0000E+000
 809.00,0.0000E+000
 809.50,0.0000E+000
 810.00,0.0000E+000
 810.50,0.0000E+000
 811.00,0.0000E+000
 811.50,0.0000E+000
 812.00,0.0000E+000
 812.50,0.0000E+000
 813.00,0.0000E+000
 813.50,0.0000E+000
 814.00,0.0000E+000
 814.50,0.0000E+000
 815.00,0.0000E+000
 815.50,0.0000E+000
 816.00,0.0000E+000
 816.50,0.0000E+000
 817.00,0.0000E+000
 817.50,0.0000E+000
 818.00,0.0000E+000
 818.50,0.0000E+000
 819.00,0.0000E+000
 819.50,0.0000E+000
 820.00,0.0000E+000
 820.50,0.0000E+000
 821.00,0.0000E+000
 821.50,0.0000E+000
 822.00,0.0000E+000
 822.50,0.0000E+000
 823.00,0.0000E+000
 823.50,0.0000E+000
 824.00,0.0000E+000
 824.50,0.0000E+000
 825.00,0.0000E+000
 825.50,0.0000E+000
 826.00,0.0000E+000
 826.50,0.0000E+000
 827.00,0.0000E+000
 827.50,0.0000E+000
 828.00,0.0000E+000
 828.50,0.0000E+000
 829.00,0.0000E+000
 829.50,0.0000E+000
 830.00,0.0000E+000
 830.50,0.0000E+000
 831.00,0.0000E+000
 831.50,0.0000E+000
 832.00,0.0000E+000
 832.50,0.0000E+000
 833.00,0.0000E+000
 833.50,0.0000E+000
 834.00,0.0000E+000
 834.50,0.0000E+000
 835.00,0.0000E+000
 835.50,0.0000E+000
 836.00,0.0000E+000
 836.50,0.0000E+000
 837.00,0.0000E+000
 837.50,0.0000E+000
 838.00,0.0000E+000
 838.50,0.0000E+000
 839.00,0.0000E+000
 839.50,0.0000E+000
 840.00,0.0000E+000
 840.50,0.0000E+000
 841.00,0.0000E+000
 841.50,0.0000E+000
 842.00,0.0000E+000
 842.50,0.0000E+000
 843.00,0.0000E+000
 843.50,0.0000E+000
 844.00,0.0000E+000
 844.50,0.0000E+000
 845.00,0.0000E+000
 845.50,0.0000E+000
 846.00,0.0000E+000
 846.50,0.0000E+000
 847.00,0.0000E+000
 847.50,0.0000E+000
 848.00,0.0000E+000
 848.50,0.0000E+000
 849.00,0.0000E+000
 849.50,0.0000E+000
 850.00,0.0000E+000
 850.50,0.0000E+000
 851.00,0.0000E+000
 851.50,0.0000E+000
 852.00,0.0000E+000
 852.50,0.0000E+000
 853.00,0.0000E+000
 853.50,0.0000E+000
 854.00,0.0000E+000
 854.50,0.0000E+000
 855.00,0.0000E+000
 855.50,0.0000E+000
 856.00,0.0000E+000
 856.50,0.0000E+000
 857.00,0.0000E+000
 857.50,0.0000E+000
 858.00,0.0000E+000
 858.50,0.0000E+000
 859.00,0.0000E+000
 859.50,0.0000E+000
 860.00,0.0000E+000
 860.50,0.0000E+000
 861.00,0.0000E+000
 861.50,0.0000E+000
 862.00,0.0000E+000
 862.50,0.0000E+000
 863.00,0.0000E+000
 863.50,0.0000E+000
 864.00,0.0000E+000
 864.50,0.0000E+000
 865.00,0.0000E+000
 865.50,0.0000E+000
 866.00,0.0000E+000
 866.50,0.0000E+000
 867.00,0.0000E+000
 867.50,0.0000E+000
 868.00,0.0000E+000
 868.50,0.0000E+000
 869.00,0.0000E+000
 869.50,0.0000E+000
 870.00,0.0000E+000
 870.50,0.0000E+000
 871.00,0.0000E+000
 871.50,0.0000E+000
 872.00,0.0000E+000
 872.50,0.0000E+000
 873.00,0.0000E+000
 873.50,0.0000E+000
 874.00,0.0000E+000
 874.50,0.0000E+000
 875.00,0.0000E+000
 875.50,0.0000E+000
 876.00,0.0000E+000
 876.50,0.0000E+000
 877.00,0.0000E+000
 877.50,0.0000E+000
 878.00,0.0000E+000
 878.50,0.0000E+000
 879.00,0.0000E+000
 879.50,0.0000E+000
 880.00,0.0000E+000
 880.50,0.0000E+000
 881.00,0.0000E+000
 881.50,0.0000E+000
 882.00,0.0000E+000
 882.50,0.0000E+000
 883.00,0.0000E+000
 883.50,0.0000E+000
 884.00,0.0000E+000
 884.50,0.0000E+000
 885.00,0.0000E+000
 885.50,0.0000E+000
 886.00,0.0000E+000
 886.50,0.0000E+000
 887.00,0.0000E+000
 887.50,0.0000E+000
 888.00,0.0000E+000
 888.50,0.0000E+000
 889.00,0.0000E+000
 889.50,0.0000E+000
 890.00,0.0000E+000
 890.50,0.0000E+000
 891.00,0.0000E+000
 891.50,0.0000E+000
 892.00,0.0000E+000
 892.50,0.0000E+000
 893.00,0.0000E+000
 893.50,0.0000E+000
 894.00,0.0000E+000
 894.50,0.0000E+000
 895.00,0.0000E+000
 895.50,0.0000E+000
 896.00,0.0000E+000
 896.50,0.0000E+000
 897.00,0.0000E+000
 897.50,0.0000E+000
 898.00,0.0000E+000
 898.50,0.0000E+000
 899.00,0.0000E+000
 899.50,0.0000E+000

