wavelength,intensity
 273.00,0.0000E+000
 273.50,0.0000E+000
 274.00,0.0000E+000
 274.50,0.0000E+000
 275.00,0.0000E+000
 275.50,0.0000E+000
 276.00,0.0000E+000
 276.50,0.0000E+000
 277.00,0.0000E+000
 277.50,0.0000E+000
 278.00,0.0000E+000
 278.50,0.0000E+000
 279.00,0.0000E+000
 279.50,0.0000E+000
 280.00,0.0000E+000
 280.50,0.0000E+000
 281.00,0.0000E+000
 281.50,0.0000E+000
 282.00,0.0000E+000
 282.50,0.0000E+000
 283.00,0.0000E+000
 283.50,0.0000E+000
 284.00,0.0000E+000
 284.50,0.0000E+000
 285.00,0.0000E+000
 285.50,0.0000E+000
 286.00,0.0000E+000
 286.50,0.0000E+000
 287.00,0.0000E+000
 287.50,0.0000E+000
 288.00,0.0000E+000
 288.50,0.0000E+000
 289.00,0.0000E+000
 289.50,0.0000E+000
 290.00,0.0000E+000
 290.50,0.0000E+000
 291.00,0.0000E+000
 291.50,0.0000E+000
 292.00,0.0000E+000
 292.50,0.0000E+000
 293.00,0.0000E+000
 293.50,0.0000E+000
 294.00,0.0000E+000
 294.50,0.0000E+000
 295.00,0.0000E+000
 295.50,0.0000E+000
 296.00,0.0000E+000
 296.50,0.0000E+000
 297.00,0.0000E+000
 297.50,0.0000E+000
 298.00,0.0000E+000
 298.50,0.0000E+000
 299.00,0.0000E+000
 299.50,0.0000E+000
 300.00,0.0000E+000
 300.50,0.0000E+000
 301.00,0.0000E+000
 301.50,0.0000E+000
 302.00,0.0000E+000
 302.50,0.0000E+000
 303.00,0.0000E+000
 303.50,0.0000E+000
 304.00,0.0000E+000
 304.50,0.0000E+000
 305.00,0.0000E+000
 305.50,0.0000E+000
 306.00,0.0000E+000
 306.50,0.0000E+000
 307.00,0.0000E+000
 307.50,0.0000E+000
 308.00,0.0000E+000
 308.50,0.0000E+000
 309.00,0.0000E+000
 309.50,0.0000E+000
 310.00,0.0000E+000
 310.50,0.0000E+000
 311.00,0.0000E+000
 311.50,0.0000E+000
 312.00,0.0000E+000
 312.50,0.0000E+000
 313.00,0.0000E+000
 313.50,0.0000E+000
 314.00,0.0000E+000
 314.50,0.0000E+000
 315.00,0.0000E+000
 315.50,0.0000E+000
 316.00,0.0000E+000
 316.50,0.0000E+000
 317.00,0.0000E+000
 317.50,0.0000E+000
 318.00,0.0000E+000
 318.50,0.0000E+000
 319.00,0.0000E+000
 319.50,0.0000E+000
 320.00,0.0000E+000
 320.50,0.0000E+000
 321.00,0.0000E+000
 321.50,0.0000E+000
 322.00,0.0000E+000
 322.50,0.0000E+000
 323.00,0.0000E+000
 323.50,0.0000E+000
 324.00,0.0000E+000
 324.50,0.0000E+000
 325.00,0.0000E+000
 325.50,0.0000E+000
 326.00,0.0000E+000
 326.50,0.0000E+000
 327.00,0.0000E+000
 327.50,0.0000E+000
 328.00,0.0000E+000
 328.50,0.0000E+000
 329.00,0.0000E+000
 329.50,0.0000E+000
 330.00,0.0000E+000
 330.50,0.0000E+000
 331.00,0.0000E+000
 331.50,0.0000E+000
 332.00,0.0000E+000
 332.50,0.0000E+000
 333.00,0.0000E+000
 333.50,0.0000E+000
 334.00,0.0000E+000
 334.50,0.0000E+000
 335.00,0.0000E+000
 335.50,0.0000E+000
 336.00,0.0000E+000
 336.50,0.0000E+000
 337.00,0.0000E+000
 337.50,0.0000E+000
 338.00,0.0000E+000
 338.50,0.0000E+000
 339.00,0.0000E+000
 339.50,0.0000E+000
 340.00,0.0000E+000
 340.50,0.0000E+000
 341.00,0.0000E+000
 341.50,0.0000E+000
 342.00,0.0000E+000
 342.50,0.0000E+000
 343.00,0.0000E+000
 343.50,0.0000E+000
 344.00,0.0000E+000
 344.50,0.0000E+000
 345.00,0.0000E+000
 345.50,0.0000E+000
 346.00,4.0957E-006
 346.50,3.8634E-005
 347.00,1.5888E-005
 347.50,0.0000E+000
 348.00,0.0000E+000
 348.50,0.0000E+000
 349.00,0.0000E+000
 349.50,0.0000E+000
 350.00,0.0000E+000
 350.50,0.0000E+000
 351.00,0.0000E+000
 351.50,0.0000E+000
 352.00,0.0000E+000
 352.50,0.0000E+000
 353.00,0.0000E+000
 353.50,0.0000E+000
 354.00,0.0000E+000
 354.50,0.0000E+000
 355.00,0.0000E+000
 355.50,0.0000E+000
 356.00,0.0000E+000
 356.50,0.0000E+000
 357.00,0.0000E+000
 357.50,0.0000E+000
 358.00,0.0000E+000
 358.50,0.0000E+000
 359.00,0.0000E+000
 359.50,0.0000E+000
 360.00,0.0000E+000
 360.50,0.0000E+000
 361.00,0.0000E+000
 361.50,0.0000E+000
 362.00,0.0000E+000
 362.50,0.0000E+000
 363.00,0.0000E+000
 363.50,0.0000E+000
 364.00,0.0000E+000
 364.50,6.3781E-005
 365.00,1.2621E-004
 365.50,1.4361E-004
 366.00,7.5267E-005
 366.50,9.9757E-006
 367.00,0.0000E+000
 367.50,0.0000E+000
 368.00,0.0000E+000
 368.50,0.0000E+000
 369.00,0.0000E+000
 369.50,0.0000E+000
 370.00,0.0000E+000
 370.50,0.0000E+000
 371.00,0.0000E+000
 371.50,0.0000E+000
 372.00,0.0000E+000
 372.50,0.0000E+000
 373.00,0.0000E+000
 373.50,0.0000E+000
 374.00,0.0000E+000
 374.50,0.0000E+000
 375.00,0.0000E+000
 375.50,0.0000E+000
 376.00,0.0000E+000
 376.50,0.0000E+000
 377.00,0.0000E+000
 377.50,0.0000E+000
 378.00,0.0000E+000
 378.50,0.0000E+000
 379.00,0.0000E+000
 379.50,0.0000E+000
 380.00,0.0000E+000
 380.50,0.0000E+000
 381.00,0.0000E+000
 381.50,0.0000E+000
 382.00,0.0000E+000
 382.50,0.0000E+000
 383.00,0.0000E+000
 383.50,0.0000E+000
 384.00,0.0000E+000
 384.50,0.0000E+000
 385.00,0.0000E+000
 385.50,0.0000E+000
 386.00,0.0000E+000
 386.50,0.0000E+000
 387.00,0.0000E+000
 387.50,0.0000E+000
 388.00,0.0000E+000
 388.50,0.0000E+000
 389.00,0.0000E+000
 389.50,0.0000E+000
 390.00,0.0000E+000
 390.50,0.0000E+000
 391.00,0.0000E+000
 391.50,0.0000E+000
 392.00,0.0000E+000
 392.50,0.0000E+000
 393.00,0.0000E+000
 393.50,0.0000E+000
 394.00,0.0000E+000
 394.50,0.0000E+000
 395.00,0.0000E+000
 395.50,9.9221E-006
 396.00,2.2868E-005
 396.50,1.2279E-005
 397.00,3.6737E-007
 397.50,0.0000E+000
 398.00,0.0000E+000
 398.50,0.0000E+000
 399.00,0.0000E+000
 399.50,0.0000E+000
 400.00,0.0000E+000
 400.50,0.0000E+000
 401.00,0.0000E+000
 401.50,0.0000E+000
 402.00,0.0000E+000
 402.50,7.2898E-006
 403.00,1.9241E-004
 403.50,5.8231E-004
 404.00,1.0213E-003
 404.50,1.2298E-003
 405.00,1.1056E-003
 405.50,7.0495E-004
 406.00,3.5867E-004
 406.50,1.6214E-004
 407.00,1.1048E-004
 407.50,7.0859E-005
 408.00,3.6561E-005
 408.50,1.4555E-005
 409.00,1.2395E-005
 409.50,2.1530E-005
 410.00,3.6674E-005
 410.50,3.4406E-005
 411.00,1.7783E-005
 411.50,1.1510E-005
 412.00,1.5759E-005
 412.50,3.7253E-005
 413.00,7.5878E-005
 413.50,1.0929E-004
 414.00,1.2318E-004
 414.50,1.3183E-004
 415.00,1.2197E-004
 415.50,1.1821E-004
 416.00,1.2133E-004
 416.50,1.3539E-004
 417.00,1.3616E-004
 417.50,1.5462E-004
 418.00,1.6655E-004
 418.50,1.8342E-004
 419.00,2.1732E-004
 419.50,2.4083E-004
 420.00,2.6116E-004
 420.50,2.8828E-004
 421.00,2.9825E-004
 421.50,2.9990E-004
 422.00,3.0045E-004
 422.50,3.0852E-004
 423.00,3.1398E-004
 423.50,3.4001E-004
 424.00,3.5010E-004
 424.50,3.5644E-004
 425.00,3.8042E-004
 425.50,4.0395E-004
 426.00,4.4947E-004
 426.50,4.8436E-004
 427.00,4.9933E-004
 427.50,5.1182E-004
 428.00,5.1686E-004
 428.50,5.2080E-004
 429.00,5.3597E-004
 429.50,5.4277E-004
 430.00,5.5014E-004
 430.50,5.5659E-004
 431.00,5.4761E-004
 431.50,5.7910E-004
 432.00,6.5007E-004
 432.50,7.1706E-004
 433.00,7.6188E-004
 433.50,8.7810E-004
 434.00,1.3539E-003
 434.50,2.6709E-003
 435.00,4.4334E-003
 435.50,5.7000E-003
 436.00,5.5324E-003
 436.50,4.2000E-003
 437.00,2.5648E-003
 437.50,1.4610E-003
 438.00,1.0091E-003
 438.50,8.6868E-004
 439.00,8.2131E-004
 439.50,8.2737E-004
 440.00,8.3551E-004
 440.50,8.6050E-004
 441.00,8.6260E-004
 441.50,8.6556E-004
 442.00,8.8005E-004
 442.50,8.8301E-004
 443.00,8.9469E-004
 443.50,8.9517E-004
 444.00,8.8462E-004
 444.50,9.0428E-004
 445.00,9.2304E-004
 445.50,9.5769E-004
 446.00,9.7877E-004
 446.50,9.8746E-004
 447.00,9.9446E-004
 447.50,9.8147E-004
 448.00,9.6731E-004
 448.50,9.3683E-004
 449.00,9.3112E-004
 449.50,9.4251E-004
 450.00,9.6405E-004
 450.50,9.8097E-004
 451.00,9.6748E-004
 451.50,9.6654E-004
 452.00,9.6687E-004
 452.50,9.4272E-004
 453.00,9.1683E-004
 453.50,8.7559E-004
 454.00,8.5926E-004
 454.50,8.7234E-004
 455.00,9.1074E-004
 455.50,9.1767E-004
 456.00,9.1816E-004
 456.50,8.9341E-004
 457.00,8.5621E-004
 457.50,8.4803E-004
 458.00,8.5484E-004
 458.50,8.5282E-004
 459.00,8.6215E-004
 459.50,8.5662E-004
 460.00,8.7224E-004
 460.50,8.7662E-004
 461.00,8.7494E-004
 461.50,8.6971E-004
 462.00,8.5050E-004
 462.50,8.3969E-004
 463.00,8.2885E-004
 463.50,8.1774E-004
 464.00,8.2331E-004
 464.50,8.2810E-004
 465.00,8.1335E-004
 465.50,7.8973E-004
 466.00,7.5296E-004
 466.50,7.2991E-004
 467.00,7.1101E-004
 467.50,7.0441E-004
 468.00,7.0578E-004
 468.50,7.1301E-004
 469.00,7.4068E-004
 469.50,7.5080E-004
 470.00,7.5349E-004
 470.50,7.3271E-004
 471.00,6.9012E-004
 471.50,6.5678E-004
 472.00,6.4957E-004
 472.50,6.4739E-004
 473.00,6.7229E-004
 473.50,6.7070E-004
 474.00,6.5365E-004
 474.50,6.2843E-004
 475.00,6.0906E-004
 475.50,6.1401E-004
 476.00,6.2659E-004
 476.50,6.2180E-004
 477.00,5.9090E-004
 477.50,5.6577E-004
 478.00,5.6871E-004
 478.50,5.8853E-004
 479.00,6.1704E-004
 479.50,6.4087E-004
 480.00,6.6879E-004
 480.50,6.6693E-004
 481.00,6.4781E-004
 481.50,6.3267E-004
 482.00,6.5464E-004
 482.50,7.0598E-004
 483.00,7.7548E-004
 483.50,8.4949E-004
 484.00,9.3973E-004
 484.50,1.0363E-003
 485.00,1.1385E-003
 485.50,1.2400E-003
 486.00,1.3105E-003
 486.50,1.3362E-003
 487.00,1.3246E-003
 487.50,1.2938E-003
 488.00,1.2515E-003
 488.50,1.2003E-003
 489.00,1.1413E-003
 489.50,1.0858E-003
 490.00,1.0436E-003
 490.50,1.0181E-003
 491.00,9.9405E-004
 491.50,9.6883E-004
 492.00,9.1684E-004
 492.50,8.6053E-004
 493.00,8.0312E-004
 493.50,7.5661E-004
 494.00,7.4628E-004
 494.50,7.3225E-004
 495.00,7.1929E-004
 495.50,6.7593E-004
 496.00,6.3172E-004
 496.50,6.0612E-004
 497.00,5.8544E-004
 497.50,5.8480E-004
 498.00,5.8005E-004
 498.50,5.7238E-004
 499.00,5.5432E-004
 499.50,5.3558E-004
 500.00,5.1491E-004
 500.50,4.9407E-004
 501.00,4.7392E-004
 501.50,4.5269E-004
 502.00,4.3011E-004
 502.50,4.2538E-004
 503.00,4.1732E-004
 503.50,4.2334E-004
 504.00,4.1867E-004
 504.50,4.1828E-004
 505.00,4.2620E-004
 505.50,4.4487E-004
 506.00,4.6418E-004
 506.50,4.7840E-004
 507.00,4.9163E-004
 507.50,4.9279E-004
 508.00,4.8191E-004
 508.50,4.7315E-004
 509.00,4.7045E-004
 509.50,4.8875E-004
 510.00,5.1328E-004
 510.50,5.3244E-004
 511.00,5.3364E-004
 511.50,5.2834E-004
 512.00,5.2734E-004
 512.50,5.2787E-004
 513.00,5.3022E-004
 513.50,5.2713E-004
 514.00,5.3074E-004
 514.50,5.3468E-004
 515.00,5.3816E-004
 515.50,5.3093E-004
 516.00,5.3825E-004
 516.50,5.4015E-004
 517.00,5.4657E-004
 517.50,5.4566E-004
 518.00,5.3936E-004
 518.50,5.1742E-004
 519.00,4.9656E-004
 519.50,4.7067E-004
 520.00,4.6679E-004
 520.50,4.8062E-004
 521.00,4.7305E-004
 521.50,4.5131E-004
 522.00,4.1489E-004
 522.50,3.9570E-004
 523.00,3.9510E-004
 523.50,3.9534E-004
 524.00,3.9358E-004
 524.50,3.8587E-004
 525.00,3.9238E-004
 525.50,3.8694E-004
 526.00,3.8712E-004
 526.50,3.8730E-004
 527.00,3.8644E-004
 527.50,3.8303E-004
 528.00,3.6714E-004
 528.50,3.5421E-004
 529.00,3.4832E-004
 529.50,3.5119E-004
 530.00,3.5027E-004
 530.50,3.4572E-004
 531.00,3.4859E-004
 531.50,3.5575E-004
 532.00,3.7002E-004
 532.50,3.8682E-004
 533.00,4.0177E-004
 533.50,4.0280E-004
 534.00,4.0716E-004
 534.50,4.0504E-004
 535.00,4.1258E-004
 535.50,4.4508E-004
 536.00,4.9723E-004
 536.50,6.0227E-004
 537.00,7.2298E-004
 537.50,8.6579E-004
 538.00,1.0072E-003
 538.50,1.1966E-003
 539.00,1.4957E-003
 539.50,1.9849E-003
 540.00,2.7442E-003
 540.50,3.7434E-003
 541.00,4.7374E-003
 541.50,5.4127E-003
 542.00,5.5083E-003
 542.50,5.1905E-003
 543.00,4.7806E-003
 543.50,4.5121E-003
 544.00,4.6197E-003
 544.50,5.3143E-003
 545.00,6.7563E-003
 545.50,8.2328E-003
 546.00,8.5414E-003
 546.50,7.5681E-003
 547.00,5.7998E-003
 547.50,4.3047E-003
 548.00,3.4488E-003
 548.50,2.9351E-003
 549.00,2.5560E-003
 549.50,2.2338E-003
 550.00,1.9447E-003
 550.50,1.6659E-003
 551.00,1.4240E-003
 551.50,1.2401E-003
 552.00,1.1076E-003
 552.50,9.8264E-004
 553.00,8.4206E-004
 553.50,7.0740E-004
 554.00,5.8912E-004
 554.50,5.0630E-004
 555.00,4.3263E-004
 555.50,3.7620E-004
 556.00,3.2950E-004
 556.50,2.9958E-004
 557.00,2.8720E-004
 557.50,2.7549E-004
 558.00,2.5329E-004
 558.50,2.1440E-004
 559.00,1.8417E-004
 559.50,1.5941E-004
 560.00,1.6188E-004
 560.50,1.6284E-004
 561.00,1.6230E-004
 561.50,1.5802E-004
 562.00,1.5567E-004
 562.50,1.4076E-004
 563.00,1.3807E-004
 563.50,1.1722E-004
 564.00,1.1152E-004
 564.50,1.0533E-004
 565.00,9.7811E-005
 565.50,8.9652E-005
 566.00,7.1731E-005
 566.50,6.0701E-005
 567.00,5.9513E-005
 567.50,5.5515E-005
 568.00,6.2912E-005
 568.50,5.6418E-005
 569.00,6.6838E-005
 569.50,5.7878E-005
 570.00,5.9715E-005
 570.50,4.7369E-005
 571.00,4.6851E-005
 571.50,2.9952E-005
 572.00,1.6665E-005
 572.50,1.8466E-005
 573.00,3.7747E-005
 573.50,5.7423E-005
 574.00,6.9120E-005
 574.50,7.9610E-005
 575.00,1.4568E-004
 575.50,3.2411E-004
 576.00,6.3712E-004
 576.50,9.3890E-004
 577.00,1.0816E-003
 577.50,1.0244E-003
 578.00,9.8762E-004
 578.50,1.0607E-003
 579.00,1.1279E-003
 579.50,1.0384E-003
 580.00,8.7215E-004
 580.50,7.3205E-004
 581.00,7.1515E-004
 581.50,7.6487E-004
 582.00,8.7359E-004
 582.50,9.8817E-004
 583.00,1.0810E-003
 583.50,1.1061E-003
 584.00,1.0924E-003
 584.50,1.0437E-003
 585.00,9.9744E-004
 585.50,9.9055E-004
 586.00,1.0529E-003
 586.50,1.1869E-003
 587.00,1.2779E-003
 587.50,1.2316E-003
 588.00,1.0632E-003
 588.50,8.4037E-004
 589.00,6.8234E-004
 589.50,5.8002E-004
 590.00,5.7216E-004
 590.50,6.0794E-004
 591.00,6.6825E-004
 591.50,7.4539E-004
 592.00,8.5666E-004
 592.50,9.7540E-004
 593.00,1.0455E-003
 593.50,9.8560E-004
 594.00,8.3092E-004
 594.50,6.2076E-004
 595.00,4.5628E-004
 595.50,3.7093E-004
 596.00,3.5621E-004
 596.50,3.8262E-004
 597.00,3.9260E-004
 597.50,4.2921E-004
 598.00,4.8553E-004
 598.50,5.7099E-004
 599.00,6.3528E-004
 599.50,6.3193E-004
 600.00,5.8638E-004
 600.50,4.9676E-004
 601.00,4.0157E-004
 601.50,3.1585E-004
 602.00,2.6291E-004
 602.50,2.3906E-004
 603.00,2.2177E-004
 603.50,2.1839E-004
 604.00,2.3219E-004
 604.50,2.2907E-004
 605.00,2.2573E-004
 605.50,2.3549E-004
 606.00,2.9577E-004
 606.50,3.7598E-004
 607.00,4.4813E-004
 607.50,5.3731E-004
 608.00,6.8646E-004
 608.50,9.5645E-004
 609.00,1.4457E-003
 609.50,2.5064E-003
 610.00,4.3061E-003
 610.50,6.6247E-003
 611.00,8.3753E-003
 611.50,8.6959E-003
 612.00,7.4370E-003
 612.50,5.6700E-003
 613.00,4.2440E-003
 613.50,3.4011E-003
 614.00,2.9234E-003
 614.50,2.5857E-003
 615.00,2.2517E-003
 615.50,1.8793E-003
 616.00,1.5091E-003
 616.50,1.1864E-003
 617.00,9.6857E-004
 617.50,8.2287E-004
 618.00,7.3378E-004
 618.50,6.9476E-004
 619.00,6.8985E-004
 619.50,7.1527E-004
 620.00,7.3580E-004
 620.50,7.6808E-004
 621.00,7.9037E-004
 621.50,8.1679E-004
 622.00,8.1619E-004
 622.50,8.2529E-004
 623.00,8.6421E-004
 623.50,8.9873E-004
 624.00,9.2748E-004
 624.50,9.1590E-004
 625.00,8.9967E-004
 625.50,8.9955E-004
 626.00,9.0450E-004
 626.50,9.0835E-004
 627.00,8.5323E-004
 627.50,7.7921E-004
 628.00,7.2314E-004
 628.50,6.9669E-004
 629.00,7.0015E-004
 629.50,7.6790E-004
 630.00,9.1509E-004
 630.50,1.0836E-003
 631.00,1.1330E-003
 631.50,9.8981E-004
 632.00,7.0935E-004
 632.50,4.1831E-004
 633.00,2.4934E-004
 633.50,1.6057E-004
 634.00,1.4850E-004
 634.50,1.2758E-004
 635.00,1.4675E-004
 635.50,1.6263E-004
 636.00,1.6142E-004
 636.50,1.4185E-004
 637.00,1.0449E-004
 637.50,8.1773E-005
 638.00,6.2190E-005
 638.50,6.2439E-005
 639.00,7.5282E-005
 639.50,8.3763E-005
 640.00,5.1664E-005
 640.50,2.1886E-005
 641.00,1.9780E-005
 641.50,6.0157E-005
 642.00,9.7880E-005
 642.50,7.7990E-005
 643.00,5.8663E-005
 643.50,3.4832E-005
 644.00,5.8012E-005
 644.50,6.2935E-005
 645.00,6.4065E-005
 645.50,7.3710E-005
 646.00,8.4378E-005
 646.50,8.2495E-005
 647.00,6.1565E-005
 647.50,6.4437E-005
 648.00,9.4603E-005
 648.50,1.2119E-004
 649.00,1.4956E-004
 649.50,1.9937E-004
 650.00,2.6432E-004
 650.50,2.9079E-004
 651.00,2.5999E-004
 651.50,2.0512E-004
 652.00,1.7216E-004
 652.50,1.5750E-004
 653.00,1.4060E-004
 653.50,1.2115E-004
 654.00,9.1562E-005
 654.50,9.3013E-005
 655.00,9.1385E-005
 655.50,1.0054E-004
 656.00,9.8686E-005
 656.50,1.1711E-004
 657.00,1.3018E-004
 657.50,1.1529E-004
 658.00,9.6796E-005
 658.50,8.9503E-005
 659.00,8.4668E-005
 659.50,5.8638E-005
 660.00,2.0865E-005
 660.50,1.2470E-005
 661.00,2.0692E-005
 661.50,6.7738E-005
 662.00,1.1177E-004
 662.50,1.5284E-004
 663.00,1.2054E-004
 663.50,7.4969E-005
 664.00,3.5227E-005
 664.50,4.1962E-005
 665.00,4.5998E-005
 665.50,4.1573E-005
 666.00,9.5501E-006
 666.50,0.0000E+000
 667.00,0.0000E+000
 667.50,0.0000E+000
 668.00,0.0000E+000
 668.50,0.0000E+000
 669.00,0.0000E+000
 669.50,3.1437E-006
 670.00,9.9881E-006
 670.50,2.0782E-006
 671.00,0.0000E+000
 671.50,0.0000E+000
 672.00,0.0000E+000
 672.50,0.0000E+000
 673.00,7.3459E-007
 673.50,0.0000E+000
 674.00,0.0000E+000
 674.50,0.0000E+000
 675.00,0.0000E+000
 675.50,0.0000E+000
 676.00,0.0000E+000
 676.50,1.4282E-007
 677.00,5.1630E-006
 677.50,0.0000E+000
 678.00,0.0000E+000
 678.50,0.0000E+000
 679.00,0.0000E+000
 679.50,0.0000E+000
 680.00,0.0000E+000
 680.50,2.5870E-005
 681.00,1.7097E-005
 681.50,1.0335E-005
 682.00,1.9100E-007
 682.50,0.0000E+000
 683.00,0.0000E+000
 683.50,3.5902E-006
 684.00,3.0754E-005
 684.50,4.7354E-005
 685.00,4.0980E-005
 685.50,2.5769E-005
 686.00,7.8948E-006
 686.50,1.8538E-005
 687.00,4.4010E-005
 687.50,7.4264E-005
 688.00,5.5764E-005
 688.50,4.0724E-005
 689.00,9.7196E-006
 689.50,0.0000E+000
 690.00,0.0000E+000
 690.50,0.0000E+000
 691.00,0.0000E+000
 691.50,0.0000E+000
 692.00,0.0000E+000
 692.50,0.0000E+000
 693.00,4.9540E-006
 693.50,2.2627E-005
 694.00,1.1151E-005
 694.50,5.1725E-006
 695.00,0.0000E+000
 695.50,0.0000E+000
 696.00,0.0000E+000
 696.50,0.0000E+000
 697.00,0.0000E+000
 697.50,0.0000E+000
 698.00,0.0000E+000
 698.50,0.0000E+000
 699.00,0.0000E+000
 699.50,0.0000E+000
 700.00,0.0000E+000
 700.50,0.0000E+000
 701.00,0.0000E+000
 701.50,0.0000E+000
 702.00,0.0000E+000
 702.50,0.0000E+000
 703.00,0.0000E+000
 703.50,0.0000E+000
 704.00,2.0898E-005
 704.50,8.8308E-005
 705.00,1.3858E-004
 705.50,1.8877E-004
 706.00,2.6685E-004
 706.50,3.3335E-004
 707.00,3.6773E-004
 707.50,3.6216E-004
 708.00,3.8841E-004
 708.50,4.1997E-004
 709.00,4.4296E-004
 709.50,3.9961E-004
 710.00,2.8806E-004
 710.50,1.7182E-004
 711.00,1.1375E-004
 711.50,1.1475E-004
 712.00,1.7427E-004
 712.50,2.2497E-004
 713.00,2.1331E-004
 713.50,1.3472E-004
 714.00,5.0874E-005
 714.50,0.0000E+000
 715.00,0.0000E+000
 715.50,0.0000E+000
 716.00,0.0000E+000
 716.50,0.0000E+000
 717.00,0.0000E+000
 717.50,0.0000E+000
 718.00,0.0000E+000
 718.50,0.0000E+000
 719.00,0.0000E+000
 719.50,0.0000E+000
 720.00,0.0000E+000
 720.50,0.0000E+000
 721.00,0.0000E+000
 721.50,0.0000E+000
 722.00,0.0000E+000
 722.50,0.0000E+000
 723.00,0.0000E+000
 723.50,0.0000E+000
 724.00,0.0000E+000
 724.50,0.0000E+000
 725.00,0.0000E+000
 725.50,0.0000E+000
 726.00,0.0000E+000
 726.50,0.0000E+000
 727.00,0.0000E+000
 727.50,0.0000E+000
 728.00,0.0000E+000
 728.50,0.0000E+000
 729.00,0.0000E+000
 729.50,0.0000E+000
 730.00,0.0000E+000
 730.50,0.0000E+000
 731.00,0.0000E+000
 731.50,0.0000E+000
 732.00,0.0000E+000
 732.50,0.0000E+000
 733.00,0.0000E+000
 733.50,0.0000E+000
 734.00,0.0000E+000
 734.50,0.0000E+000
 735.00,0.0000E+000
 735.50,0.0000E+000
 736.00,0.0000E+000
 736.50,0.0000E+000
 737.00,0.0000E+000
 737.50,0.0000E+000
 738.00,0.0000E+000
 738.50,0.0000E+000
 739.00,0.0000E+000
 739.50,0.0000E+000
 740.00,0.0000E+000
 740.50,0.0000E+000
 741.00,0.0000E+000
 741.50,0.0000E+000
 742.00,0.0000E+000
 742.50,0.0000E+000
 743.00,0.0000E+000
 743.50,0.0000E+000
 744.00,0.0000E+000
 744.50,0.0000E+000
 745.00,0.0000E+000
 745.50,0.0000E+000
 746.00,0.0000E+000
 746.50,0.0000E+000
 747.00,0.0000E+000
 747.50,0.0000E+000
 748.00,0.0000E+000
 748.50,0.0000E+000
 749.00,0.0000E+000
 749.50,0.0000E+000
 750.00,0.0000E+000
 750.50,0.0000E+000
 751.00,0.0000E+000
 751.50,0.0000E+000
 752.00,0.0000E+000
 752.50,0.0000E+000
 753.00,0.0000E+000
 753.50,0.0000E+000
 754.00,0.0000E+000
 754.50,0.0000E+000
 755.00,0.0000E+000
 755.50,0.0000E+000
 756.00,0.0000E+000
 756.50,0.0000E+000
 757.00,0.0000E+000
 757.50,0.0000E+000
 758.00,0.0000E+000
 758.50,0.0000E+000
 759.00,0.0000E+000
 759.50,0.0000E+000
 760.00,0.0000E+000
 760.50,0.0000E+000
 761.00,0.0000E+000
 761.50,0.0000E+000
 762.00,0.0000E+000
 762.50,0.0000E+000
 763.00,3.4276E-005
 763.50,5.9612E-005
 764.00,1.7920E-005
 764.50,0.0000E+000
 765.00,0.0000E+000
 765.50,0.0000E+000
 766.00,0.0000E+000
 766.50,0.0000E+000
 767.00,0.0000E+000
 767.50,0.0000E+000
 768.00,0.0000E+000
 768.50,0.0000E+000
 769.00,0.0000E+000
 769.50,0.0000E+000
 770.00,0.0000E+000
 770.50,0.0000E+000
 771.00,0.0000E+000
 771.50,0.0000E+000
 772.00,0.0000E+000
 772.50,0.0000E+000
 773.00,0.0000E+000
 773.50,0.0000E+000
 774.00,0.0000E+000
 774.50,0.0000E+000
 775.00,0.0000E+000
 775.50,0.0000E+000
 776.00,0.0000E+000
 776.50,0.0000E+000
 777.00,0.0000E+000
 777.50,0.0000E+000
 778.00,0.0000E+000
 778.50,0.0000E+000
 779.00,0.0000E+000
 779.50,0.0000E+000
 780.00,0.0000E+000
 780.50,0.0000E+000
 781.00,0.0000E+000
 781.50,0.0000E+000
 782.00,0.0000E+000
 782.50,0.0000E+000
 783.00,0.0000E+000
 783.50,0.0000E+000
 784.00,0.0000E+000
 784.50,0.0000E+000
 785.00,0.0000E+000
 785.50,0.0000E+000
 786.00,0.0000E+000
 786.50,0.0000E+000
 787.00,0.0000E+000
 787.50,0.0000E+000
 788.00,0.0000E+000
 788.50,0.0000E+000
 789.00,0.0000E+000
 789.50,0.0000E+000
 790.00,0.0000E+000
 790.50,0.0000E+000
 791.00,0.0000E+000
 791.50,0.0000E+000
 792.00,0.0000E+000
 792.50,0.0000E+000
 793.00,0.0000E+000
 793.50,0.0000E+000
 794.00,0.0000E+000
 794.50,0.0000E+000
 795.00,0.0000E+000
 795.50,0.0000E+000
 796.00,0.0000E+000
 796.50,0.0000E+000
 797.00,0.0000E+000
 797.50,0.0000E+000
 798.00,0.0000E+000
 798.50,0.0000E+000
 799.00,0.0000E+000
 799.50,0.0000E+000
 800.00,0.0000E+000
 800.50,0.0000E+000
 801.00,0.0000E+000
 801.50,0.0000E+000
 802.00,0.0000E+000
 802.50,0.0000E+000
 803.00,0.0000E+000
 803.50,0.0000E+000
 804.00,0.0000E+000
 804.50,0.0000E+000
 805.00,0.0000E+000
 805.50,0.0000E+000
 806.00,0.0000E+000
 806.50,0.0000E+000
 807.00,0.0000E+000
 807.50,0.0000E+000
 808.00,0.0000E+000
 808.50,0.0000E+000
 809.00,0.0000E+000
 809.50,0.0000E+000
 810.00,0.0000E+000
 810.50,0.0000E+000
 811.00,0.0000E+000
 811.50,0.0000E+000
 812.00,1.2818E-004
 812.50,1.1135E-004
 813.00,5.3114E-006
 813.50,0.0000E+000
 814.00,0.0000E+000
 814.50,0.0000E+000
 815.00,0.0000E+000
 815.50,0.0000E+000
 816.00,0.0000E+000
 816.50,0.0000E+000
 817.00,0.0000E+000
 817.50,0.0000E+000
 818.00,0.0000E+000
 818.50,0.0000E+000
 819.00,0.0000E+000
 819.50,0.0000E+000
 820.00,0.0000E+000
 820.50,0.0000E+000
 821.00,0.0000E+000
 821.50,0.0000E+000
 822.00,0.0000E+000
 822.50,0.0000E+000
 823.00,0.0000E+000
 823.50,0.0000E+000
 824.00,0.0000E+000
 824.50,0.0000E+000
 825.00,0.0000E+000
 825.50,0.0000E+000
 826.00,0.0000E+000
 826.50,0.0000E+000
 827.00,0.0000E+000
 827.50,0.0000E+000
 828.00,0.0000E+000
 828.50,0.0000E+000
 829.00,0.0000E+000
 829.50,0.0000E+000
 830.00,0.0000E+000
 830.50,0.0000E+000
 831.00,0.0000E+000
 831.50,0.0000E+000
 832.00,0.0000E+000
 832.50,0.0000E+000
 833.00,0.0000E+000
 833.50,0.0000E+000
 834.00,0.0000E+000
 834.50,0.0000E+000
 835.00,0.0000E+000
 835.50,0.0000E+000
 836.00,0.0000E+000
 836.50,0.0000E+000
 837.00,0.0000E+000
 837.50,0.0000E+000
 838.00,0.0000E+000
 838.50,0.0000E+000
 839.00,0.0000E+000
 839.50,0.0000E+000
 840.00,0.0000E+000
 840.50,0.0000E+000
 841.00,0.0000E+000
 841.50,0.0000E+000
 842.00,0.0000E+000
 842.50,0.0000E+000
 843.00,0.0000E+000
 843.50,0.0000E+000
 844.00,0.0000E+000
 844.50,0.0000E+000
 845.00,0.0000E+000
 845.50,0.0000E+000
 846.00,0.0000E+000
 846.50,0.0000E+000
 847.00,0.0000E+000
 847.50,0.0000E+000
 848.00,0.0000E+000
 848.50,0.0000E+000
 849.00,0.0000E+000
 849.50,0.0000E+000
 850.00,0.0000E+000
 850.50,0.0000E+000
 851.00,0.0000E+000
 851.50,0.0000E+000
 852.00,0.0000E+000
 852.50,0.0000E+000
 853.00,0.0000E+000
 853.50,0.0000E+000
 854.00,0.0000E+000
 854.50,0.0000E+000
 855.00,0.0000E+000
 855.50,0.0000E+000
 856.00,0.0000E+000
 856.50,0.0000E+000
 857.00,0.0000E+000
 857.50,0.0000E+000
 858.00,0.0000E+000
 858.50,0.0000E+000
 859.00,0.0000E+000
 859.50,0.0000E+000
 860.00,0.0000E+000
 860.50,0.0000E+000
 861.00,0.0000E+000
 861.50,0.0000E+000
 862.00,0.0000E+000
 862.50,0.0000E+000
 863.00,0.0000E+000
 863.50,0.0000E+000
 864.00,0.0000E+000
 864.50,0.0000E+000
 865.00,0.0000E+000
 865.50,0.0000E+000
 866.00,0.0000E+000
 866.50,0.0000E+000
 867.00,0.0000E+000
 867.50,0.0000E+000
 868.00,0.0000E+000
 868.50,0.0000E+000
 869.00,0.0000E+000
 869.50,0.0000E+000
 870.00,0.0000E+000
 870.50,0.0000E+000
 871.00,0.0000E+000
 871.50,0.0000E+000
 872.00,0.0000E+000
 872.50,0.0000E+000
 873.00,0.0000E+000
 873.50,0.0000E+000
 874.00,0.0000E+000
 874.50,0.0000E+000
 875.00,0.0000E+000
 875.50,0.0000E+000
 876.00,0.0000E+000
 876.50,0.0000E+000
 877.00,0.0000E+000
 877.50,0.0000E+000
 878.00,0.0000E+000
 878.50,0.0000E+000
 879.00,0.0000E+000
 879.50,0.0000E+000
 880.00,0.0000E+000
 880.50,0.0000E+000
 881.00,0.0000E+000
 881.50,0.0000E+000
 882.00,0.0000E+000
 882.50,0.0000E+000
 883.00,0.0000E+000
 883.50,0.0000E+000
 884.00,0.0000E+000
 884.50,0.0000E+000
 885.00,0.0000E+000
 885.50,0.0000E+000
 886.00,0.0000E+000
 886.50,0.0000E+000
 887.00,0.0000E+000
 887.50,0.0000E+000
 888.00,0.0000E+000
 888.50,0.0000E+000
 889.00,0.0000E+000
 889.50,0.0000E+000
 890.00,0.0000E+000
 890.50,0.0000E+000
 891.00,0.0000E+000
 891.50,0.0000E+000
 892.00,0.0000E+000
 892.50,0.0000E+000
 893.00,0.0000E+000
 893.50,0.0000E+000
 894.00,0.0000E+000
 894.50,0.0000E+000
 895.00,0.0000E+000
 895.50,0.0000E+000
 896.00,0.0000E+000
 896.50,0.0000E+000
 897.00,0.0000E+000
 897.50,0.0000E+000
 898.00,0.0000E+000
 898.50,0.0000E+000
 899.00,0.0000E+000
 899.50,0.0000E+000

