wavelength,intensity
 273.00,0.0000E+000
 273.50,0.0000E+000
 274.00,0.0000E+000
 274.50,0.0000E+000
 275.00,0.0000E+000
 275.50,0.0000E+000
 276.00,0.0000E+000
 276.50,0.0000E+000
 277.00,0.0000E+000
 277.50,0.0000E+000
 278.00,0.0000E+000
 278.50,0.0000E+000
 279.00,0.0000E+000
 279.50,0.0000E+000
 280.00,0.0000E+000
 280.50,0.0000E+000
 281.00,0.0000E+000
 281.50,0.0000E+000
 282.00,0.0000E+000
 282.50,0.0000E+000
 283.00,0.0000E+000
 283.50,0.0000E+000
 284.00,0.0000E+000
 284.50,0.0000E+000
 285.00,0.0000E+000
 285.50,0.0000E+000
 286.00,0.0000E+000
 286.50,0.0000E+000
 287.00,0.0000E+000
 287.50,0.0000E+000
 288.00,0.0000E+000
 288.50,0.0000E+000
 289.00,0.0000E+000
 289.50,0.0000E+000
 290.00,0.0000E+000
 290.50,0.0000E+000
 291.00,0.0000E+000
 291.50,0.0000E+000
 292.00,0.0000E+000
 292.50,0.0000E+000
 293.00,0.0000E+000
 293.50,0.0000E+000
 294.00,0.0000E+000
 294.50,0.0000E+000
 295.00,0.0000E+000
 295.50,0.0000E+000
 296.00,0.0000E+000
 296.50,0.0000E+000
 297.00,0.0000E+000
 297.50,0.0000E+000
 298.00,0.0000E+000
 298.50,0.0000E+000
 299.00,0.0000E+000
 299.50,0.0000E+000
 300.00,0.0000E+000
 300.50,0.0000E+000
 301.00,0.0000E+000
 301.50,0.0000E+000
 302.00,0.0000E+000
 302.50,0.0000E+000
 303.00,0.0000E+000
 303.50,0.0000E+000
 304.00,0.0000E+000
 304.50,0.0000E+000
 305.00,0.0000E+000
 305.50,0.0000E+000
 306.00,0.0000E+000
 306.50,0.0000E+000
 307.00,0.0000E+000
 307.50,0.0000E+000
 308.00,0.0000E+000
 308.50,0.0000E+000
 309.00,0.0000E+000
 309.50,0.0000E+000
 310.00,0.0000E+000
 310.50,0.0000E+000
 311.00,0.0000E+000
 311.50,0.0000E+000
 312.00,0.0000E+000
 312.50,0.0000E+000
 313.00,0.0000E+000
 313.50,0.0000E+000
 314.00,0.0000E+000
 314.50,0.0000E+000
 315.00,0.0000E+000
 315.50,0.0000E+000
 316.00,0.0000E+000
 316.50,0.0000E+000
 317.00,0.0000E+000
 317.50,0.0000E+000
 318.00,0.0000E+000
 318.50,0.0000E+000
 319.00,0.0000E+000
 319.50,0.0000E+000
 320.00,0.0000E+000
 320.50,0.0000E+000
 321.00,0.0000E+000
 321.50,0.0000E+000
 322.00,0.0000E+000
 322.50,0.0000E+000
 323.00,0.0000E+000
 323.50,0.0000E+000
 324.00,0.0000E+000
 324.50,0.0000E+000
 325.00,0.0000E+000
 325.50,0.0000E+000
 326.00,0.0000E+000
 326.50,0.0000E+000
 327.00,0.0000E+000
 327.50,0.0000E+000
 328.00,0.0000E+000
 328.50,0.0000E+000
 329.00,0.0000E+000
 329.50,0.0000E+000
 330.00,0.0000E+000
 330.50,0.0000E+000
 331.00,0.0000E+000
 331.50,0.0000E+000
 332.00,0.0000E+000
 332.50,0.0000E+000
 333.00,0.0000E+000
 333.50,0.0000E+000
 334.00,0.0000E+000
 334.50,0.0000E+000
 335.00,0.0000E+000
 335.50,0.0000E+000
 336.00,0.0000E+000
 336.50,0.0000E+000
 337.00,0.0000E+000
 337.50,0.0000E+000
 338.00,0.0000E+000
 338.50,0.0000E+000
 339.00,0.0000E+000
 339.50,0.0000E+000
 340.00,0.0000E+000
 340.50,0.0000E+000
 341.00,0.0000E+000
 341.50,0.0000E+000
 342.00,0.0000E+000
 342.50,0.0000E+000
 343.00,0.0000E+000
 343.50,0.0000E+000
 344.00,0.0000E+000
 344.50,0.0000E+000
 345.00,0.0000E+000
 345.50,0.0000E+000
 346.00,0.0000E+000
 346.50,0.0000E+000
 347.00,0.0000E+000
 347.50,0.0000E+000
 348.00,0.0000E+000
 348.50,0.0000E+000
 349.00,0.0000E+000
 349.50,0.0000E+000
 350.00,0.0000E+000
 350.50,0.0000E+000
 351.00,0.0000E+000
 351.50,0.0000E+000
 352.00,0.0000E+000
 352.50,0.0000E+000
 353.00,0.0000E+000
 353.50,0.0000E+000
 354.00,0.0000E+000
 354.50,0.0000E+000
 355.00,0.0000E+000
 355.50,0.0000E+000
 356.00,0.0000E+000
 356.50,0.0000E+000
 357.00,0.0000E+000
 357.50,0.0000E+000
 358.00,0.0000E+000
 358.50,0.0000E+000
 359.00,0.0000E+000
 359.50,0.0000E+000
 360.00,0.0000E+000
 360.50,0.0000E+000
 361.00,0.0000E+000
 361.50,0.0000E+000
 362.00,0.0000E+000
 362.50,0.0000E+000
 363.00,1.9942E-005
 363.50,1.8642E-004
 364.00,4.6117E-004
 364.50,7.4090E-004
 365.00,9.0393E-004
 365.50,8.6986E-004
 366.00,6.6533E-004
 366.50,4.1243E-004
 367.00,2.0572E-004
 367.50,7.7967E-005
 368.00,9.9013E-006
 368.50,0.0000E+000
 369.00,0.0000E+000
 369.50,0.0000E+000
 370.00,0.0000E+000
 370.50,0.0000E+000
 371.00,0.0000E+000
 371.50,0.0000E+000
 372.00,0.0000E+000
 372.50,0.0000E+000
 373.00,0.0000E+000
 373.50,0.0000E+000
 374.00,0.0000E+000
 374.50,0.0000E+000
 375.00,0.0000E+000
 375.50,0.0000E+000
 376.00,0.0000E+000
 376.50,0.0000E+000
 377.00,0.0000E+000
 377.50,0.0000E+000
 378.00,0.0000E+000
 378.50,0.0000E+000
 379.00,0.0000E+000
 379.50,2.9129E-006
 380.00,7.6498E-006
 380.50,2.7134E-005
 381.00,1.6101E-005
 381.50,0.0000E+000
 382.00,0.0000E+000
 382.50,0.0000E+000
 383.00,0.0000E+000
 383.50,0.0000E+000
 384.00,0.0000E+000
 384.50,0.0000E+000
 385.00,0.0000E+000
 385.50,0.0000E+000
 386.00,0.0000E+000
 386.50,0.0000E+000
 387.00,0.0000E+000
 387.50,0.0000E+000
 388.00,0.0000E+000
 388.50,0.0000E+000
 389.00,0.0000E+000
 389.50,0.0000E+000
 390.00,0.0000E+000
 390.50,0.0000E+000
 391.00,0.0000E+000
 391.50,0.0000E+000
 392.00,0.0000E+000
 392.50,0.0000E+000
 393.00,0.0000E+000
 393.50,0.0000E+000
 394.00,0.0000E+000
 394.50,0.0000E+000
 395.00,0.0000E+000
 395.50,0.0000E+000
 396.00,0.0000E+000
 396.50,0.0000E+000
 397.00,0.0000E+000
 397.50,0.0000E+000
 398.00,8.9776E-006
 398.50,1.4432E-005
 399.00,0.0000E+000
 399.50,0.0000E+000
 400.00,0.0000E+000
 400.50,0.0000E+000
 401.00,0.0000E+000
 401.50,0.0000E+000
 402.00,0.0000E+000
 402.50,5.3910E-005
 403.00,5.0173E-004
 403.50,1.3564E-003
 404.00,2.2878E-003
 404.50,2.7297E-003
 405.00,2.4529E-003
 405.50,1.6091E-003
 406.00,8.2026E-004
 406.50,3.9545E-004
 407.00,2.9146E-004
 407.50,2.6336E-004
 408.00,2.0671E-004
 408.50,1.0690E-004
 409.00,4.1368E-005
 409.50,2.0959E-005
 410.00,1.8915E-005
 410.50,1.2138E-005
 411.00,0.0000E+000
 411.50,0.0000E+000
 412.00,0.0000E+000
 412.50,0.0000E+000
 413.00,1.0991E-005
 413.50,4.5785E-006
 414.00,0.0000E+000
 414.50,0.0000E+000
 415.00,0.0000E+000
 415.50,0.0000E+000
 416.00,0.0000E+000
 416.50,0.0000E+000
 417.00,0.0000E+000
 417.50,0.0000E+000
 418.00,0.0000E+000
 418.50,2.3869E-006
 419.00,7.3769E-006
 419.50,7.7078E-006
 420.00,0.0000E+000
 420.50,0.0000E+000
 421.00,0.0000E+000
 421.50,0.0000E+000
 422.00,0.0000E+000
 422.50,0.0000E+000
 423.00,0.0000E+000
 423.50,0.0000E+000
 424.00,0.0000E+000
 424.50,0.0000E+000
 425.00,0.0000E+000
 425.50,1.3470E-005
 426.00,5.4410E-005
 426.50,5.7609E-005
 427.00,4.9732E-005
 427.50,4.2231E-005
 428.00,3.0559E-005
 428.50,3.2910E-005
 429.00,3.2014E-005
 429.50,2.5105E-005
 430.00,6.4084E-006
 430.50,0.0000E+000
 431.00,0.0000E+000
 431.50,0.0000E+000
 432.00,8.2730E-006
 432.50,4.8179E-005
 433.00,1.0454E-004
 433.50,2.9525E-004
 434.00,1.1052E-003
 434.50,3.2343E-003
 435.00,6.0779E-003
 435.50,8.0744E-003
 436.00,7.7569E-003
 436.50,5.5725E-003
 437.00,2.9148E-003
 437.50,1.1331E-003
 438.00,3.8557E-004
 438.50,1.6099E-004
 439.00,8.7164E-005
 439.50,6.4965E-005
 440.00,3.5819E-005
 440.50,7.7369E-006
 441.00,0.0000E+000
 441.50,0.0000E+000
 442.00,0.0000E+000
 442.50,0.0000E+000
 443.00,0.0000E+000
 443.50,0.0000E+000
 444.00,0.0000E+000
 444.50,0.0000E+000
 445.00,0.0000E+000
 445.50,0.0000E+000
 446.00,0.0000E+000
 446.50,0.0000E+000
 447.00,1.7000E-007
 447.50,2.3402E-005
 448.00,2.8278E-005
 448.50,1.9981E-006
 449.00,0.0000E+000
 449.50,0.0000E+000
 450.00,9.0177E-007
 450.50,2.8415E-005
 451.00,5.7192E-005
 451.50,5.4914E-005
 452.00,2.9205E-005
 452.50,8.4191E-006
 453.00,1.3156E-005
 453.50,5.5634E-006
 454.00,0.0000E+000
 454.50,0.0000E+000
 455.00,0.0000E+000
 455.50,0.0000E+000
 456.00,0.0000E+000
 456.50,0.0000E+000
 457.00,0.0000E+000
 457.50,0.0000E+000
 458.00,0.0000E+000
 458.50,0.0000E+000
 459.00,0.0000E+000
 459.50,0.0000E+000
 460.00,0.0000E+000
 460.50,4.6621E-007
 461.00,9.6940E-006
 461.50,1.5632E-005
 462.00,3.7442E-006
 462.50,0.0000E+000
 463.00,0.0000E+000
 463.50,0.0000E+000
 464.00,0.0000E+000
 464.50,0.0000E+000
 465.00,0.0000E+000
 465.50,0.0000E+000
 466.00,0.0000E+000
 466.50,0.0000E+000
 467.00,0.0000E+000
 467.50,0.0000E+000
 468.00,0.0000E+000
 468.50,0.0000E+000
 469.00,0.0000E+000
 469.50,0.0000E+000
 470.00,0.0000E+000
 470.50,0.0000E+000
 471.00,0.0000E+000
 471.50,0.0000E+000
 472.00,0.0000E+000
 472.50,0.0000E+000
 473.00,0.0000E+000
 473.50,4.2781E-006
 474.00,2.2704E-005
 474.50,1.8478E-005
 475.00,8.0559E-006
 475.50,0.0000E+000
 476.00,4.6353E-007
 476.50,7.6955E-006
 477.00,1.3711E-006
 477.50,0.0000E+000
 478.00,0.0000E+000
 478.50,1.7147E-006
 479.00,4.4026E-005
 479.50,7.3543E-005
 480.00,1.0845E-004
 480.50,1.4376E-004
 481.00,1.6872E-004
 481.50,2.2085E-004
 482.00,2.8757E-004
 482.50,3.9114E-004
 483.00,5.1094E-004
 483.50,6.1059E-004
 484.00,7.3072E-004
 484.50,8.6177E-004
 485.00,1.0368E-003
 485.50,1.2313E-003
 486.00,1.3971E-003
 486.50,1.4999E-003
 487.00,1.5331E-003
 487.50,1.5162E-003
 488.00,1.4623E-003
 488.50,1.3774E-003
 489.00,1.2863E-003
 489.50,1.1978E-003
 490.00,1.1255E-003
 490.50,1.0801E-003
 491.00,1.0434E-003
 491.50,1.0086E-003
 492.00,9.3336E-004
 492.50,8.6141E-004
 493.00,7.9183E-004
 493.50,7.4387E-004
 494.00,7.0617E-004
 494.50,6.5903E-004
 495.00,6.1738E-004
 495.50,5.7687E-004
 496.00,5.3776E-004
 496.50,5.0420E-004
 497.00,4.6776E-004
 497.50,4.4067E-004
 498.00,4.0450E-004
 498.50,3.6808E-004
 499.00,3.3621E-004
 499.50,3.0800E-004
 500.00,2.7809E-004
 500.50,2.4124E-004
 501.00,2.0118E-004
 501.50,1.6454E-004
 502.00,1.3092E-004
 502.50,1.0975E-004
 503.00,9.8010E-005
 503.50,9.8323E-005
 504.00,8.9563E-005
 504.50,7.0292E-005
 505.00,6.3209E-005
 505.50,6.0275E-005
 506.00,7.2791E-005
 506.50,7.8034E-005
 507.00,7.5946E-005
 507.50,6.3204E-005
 508.00,4.4807E-005
 508.50,2.5365E-005
 509.00,1.6721E-005
 509.50,2.4025E-005
 510.00,4.2800E-005
 510.50,4.6179E-005
 511.00,4.0555E-005
 511.50,2.5036E-005
 512.00,2.9812E-005
 512.50,3.8156E-005
 513.00,4.5692E-005
 513.50,3.9591E-005
 514.00,3.7089E-005
 514.50,2.5746E-005
 515.00,2.5969E-005
 515.50,1.4469E-005
 516.00,2.6162E-005
 516.50,3.6058E-005
 517.00,5.4001E-005
 517.50,6.2253E-005
 518.00,5.3286E-005
 518.50,2.5120E-005
 519.00,3.0571E-006
 519.50,0.0000E+000
 520.00,7.5615E-007
 520.50,9.3281E-006
 521.00,2.0509E-005
 521.50,2.2131E-005
 522.00,1.5322E-005
 522.50,1.5231E-005
 523.00,3.1423E-005
 523.50,4.2218E-005
 524.00,4.9049E-005
 524.50,5.2358E-005
 525.00,5.1183E-005
 525.50,5.1066E-005
 526.00,5.2264E-005
 526.50,6.2768E-005
 527.00,7.6805E-005
 527.50,7.7849E-005
 528.00,6.5839E-005
 528.50,6.0909E-005
 529.00,6.0133E-005
 529.50,6.9508E-005
 530.00,8.9802E-005
 530.50,1.0876E-004
 531.00,1.4726E-004
 531.50,1.9129E-004
 532.00,2.6220E-004
 532.50,3.4406E-004
 533.00,4.0471E-004
 533.50,4.2447E-004
 534.00,4.0855E-004
 534.50,3.7903E-004
 535.00,3.6988E-004
 535.50,4.1337E-004
 536.00,5.1190E-004
 536.50,6.9821E-004
 537.00,9.3574E-004
 537.50,1.2012E-003
 538.00,1.4634E-003
 538.50,1.7703E-003
 539.00,2.2444E-003
 539.50,3.0066E-003
 540.00,4.2007E-003
 540.50,5.8033E-003
 541.00,7.4687E-003
 541.50,8.6825E-003
 542.00,8.9569E-003
 542.50,8.5187E-003
 543.00,7.8550E-003
 543.50,7.4213E-003
 544.00,7.6576E-003
 544.50,8.9080E-003
 545.00,1.1430E-002
 545.50,1.3980E-002
 546.00,1.4513E-002
 546.50,1.2801E-002
 547.00,9.7077E-003
 547.50,7.0680E-003
 548.00,5.5999E-003
 548.50,4.7484E-003
 549.00,4.1606E-003
 549.50,3.6451E-003
 550.00,3.1767E-003
 550.50,2.7414E-003
 551.00,2.3453E-003
 551.50,2.0257E-003
 552.00,1.7541E-003
 552.50,1.5197E-003
 553.00,1.3055E-003
 553.50,1.1090E-003
 554.00,9.3509E-004
 554.50,7.9528E-004
 555.00,6.8891E-004
 555.50,6.0971E-004
 556.00,5.3852E-004
 556.50,4.7561E-004
 557.00,4.4051E-004
 557.50,4.1036E-004
 558.00,3.8155E-004
 558.50,3.3602E-004
 559.00,2.9935E-004
 559.50,2.7152E-004
 560.00,2.6757E-004
 560.50,2.6139E-004
 561.00,2.6188E-004
 561.50,2.5761E-004
 562.00,2.4702E-004
 562.50,2.2091E-004
 563.00,1.9838E-004
 563.50,1.7475E-004
 564.00,1.8220E-004
 564.50,1.9063E-004
 565.00,1.9817E-004
 565.50,1.9533E-004
 566.00,1.9431E-004
 566.50,1.8975E-004
 567.00,1.8305E-004
 567.50,1.5980E-004
 568.00,1.3440E-004
 568.50,1.2765E-004
 569.00,1.2474E-004
 569.50,1.2478E-004
 570.00,1.2253E-004
 570.50,1.0503E-004
 571.00,1.1429E-004
 571.50,1.0867E-004
 572.00,1.1635E-004
 572.50,1.0936E-004
 573.00,1.1456E-004
 573.50,1.2294E-004
 574.00,1.5654E-004
 574.50,2.0006E-004
 575.00,3.2377E-004
 575.50,6.6134E-004
 576.00,1.2429E-003
 576.50,1.8043E-003
 577.00,2.0490E-003
 577.50,1.9656E-003
 578.00,1.9341E-003
 578.50,2.1613E-003
 579.00,2.3887E-003
 579.50,2.3377E-003
 580.00,2.0564E-003
 580.50,1.7505E-003
 581.00,1.6150E-003
 581.50,1.6415E-003
 582.00,1.7902E-003
 582.50,1.9386E-003
 583.00,2.0147E-003
 583.50,1.9981E-003
 584.00,1.9458E-003
 584.50,1.8720E-003
 585.00,1.8392E-003
 585.50,1.9354E-003
 586.00,2.2490E-003
 586.50,2.7459E-003
 587.00,3.1106E-003
 587.50,3.0478E-003
 588.00,2.5802E-003
 588.50,1.9710E-003
 589.00,1.5429E-003
 589.50,1.3253E-003
 590.00,1.3164E-003
 590.50,1.4144E-003
 591.00,1.6095E-003
 591.50,1.9069E-003
 592.00,2.2903E-003
 592.50,2.6455E-003
 593.00,2.8052E-003
 593.50,2.6149E-003
 594.00,2.1891E-003
 594.50,1.7038E-003
 595.00,1.3571E-003
 595.50,1.1825E-003
 596.00,1.1223E-003
 596.50,1.1241E-003
 597.00,1.1593E-003
 597.50,1.2670E-003
 598.00,1.4545E-003
 598.50,1.6891E-003
 599.00,1.8880E-003
 599.50,1.9289E-003
 600.00,1.8008E-003
 600.50,1.5434E-003
 601.00,1.2523E-003
 601.50,1.0288E-003
 602.00,8.8042E-004
 602.50,8.0302E-004
 603.00,7.6026E-004
 603.50,7.6357E-004
 604.00,8.1105E-004
 604.50,8.6217E-004
 605.00,9.2751E-004
 605.50,1.0035E-003
 606.00,1.1255E-003
 606.50,1.2791E-003
 607.00,1.4810E-003
 607.50,1.7953E-003
 608.00,2.2940E-003
 608.50,3.1448E-003
 609.00,4.6586E-003
 609.50,7.8800E-003
 610.00,1.3285E-002
 610.50,2.0270E-002
 611.00,2.5626E-002
 611.50,2.6689E-002
 612.00,2.2918E-002
 612.50,1.7470E-002
 613.00,1.3023E-002
 613.50,1.0390E-002
 614.00,8.9508E-003
 614.50,7.8988E-003
 615.00,6.8072E-003
 615.50,5.5790E-003
 616.00,4.3989E-003
 616.50,3.4370E-003
 617.00,2.7682E-003
 617.50,2.3290E-003
 618.00,2.0388E-003
 618.50,1.8725E-003
 619.00,1.7822E-003
 619.50,1.7266E-003
 620.00,1.7129E-003
 620.50,1.7343E-003
 621.00,1.7922E-003
 621.50,1.8539E-003
 622.00,1.8825E-003
 622.50,1.9225E-003
 623.00,2.0025E-003
 623.50,2.0987E-003
 624.00,2.1783E-003
 624.50,2.2172E-003
 625.00,2.2077E-003
 625.50,2.1931E-003
 626.00,2.1536E-003
 626.50,2.1113E-003
 627.00,2.0526E-003
 627.50,1.9918E-003
 628.00,1.9689E-003
 628.50,2.0026E-003
 629.00,2.1502E-003
 629.50,2.4793E-003
 630.00,2.9913E-003
 630.50,3.4607E-003
 631.00,3.5386E-003
 631.50,3.0779E-003
 632.00,2.2960E-003
 632.50,1.5284E-003
 633.00,1.0202E-003
 633.50,7.2933E-004
 634.00,6.1547E-004
 634.50,5.5054E-004
 635.00,5.2322E-004
 635.50,5.0142E-004
 636.00,4.7445E-004
 636.50,4.2823E-004
 637.00,3.7809E-004
 637.50,3.2557E-004
 638.00,3.0888E-004
 638.50,3.0232E-004
 639.00,2.9592E-004
 639.50,2.9835E-004
 640.00,2.6006E-004
 640.50,2.5824E-004
 641.00,2.4864E-004
 641.50,2.9083E-004
 642.00,3.2042E-004
 642.50,3.1051E-004
 643.00,2.8897E-004
 643.50,2.5521E-004
 644.00,2.5826E-004
 644.50,2.5999E-004
 645.00,2.6353E-004
 645.50,2.6779E-004
 646.00,2.6557E-004
 646.50,2.4327E-004
 647.00,2.2778E-004
 647.50,2.3982E-004
 648.00,2.8748E-004
 648.50,3.4305E-004
 649.00,4.4383E-004
 649.50,6.5883E-004
 650.00,9.1434E-004
 650.50,1.0358E-003
 651.00,9.5965E-004
 651.50,7.7642E-004
 652.00,6.3871E-004
 652.50,5.5877E-004
 653.00,5.0276E-004
 653.50,4.4761E-004
 654.00,3.8154E-004
 654.50,3.3811E-004
 655.00,3.1107E-004
 655.50,2.9243E-004
 656.00,2.9886E-004
 656.50,3.0166E-004
 657.00,3.1056E-004
 657.50,2.8611E-004
 658.00,2.7984E-004
 658.50,2.8898E-004
 659.00,2.6529E-004
 659.50,2.2986E-004
 660.00,1.7346E-004
 660.50,1.7914E-004
 661.00,2.3422E-004
 661.50,3.5350E-004
 662.00,4.8916E-004
 662.50,5.7812E-004
 663.00,5.5665E-004
 663.50,4.4282E-004
 664.00,3.3080E-004
 664.50,2.9005E-004
 665.00,2.7577E-004
 665.50,2.3240E-004
 666.00,1.6441E-004
 666.50,1.2797E-004
 667.00,9.4747E-005
 667.50,1.1504E-004
 668.00,1.2425E-004
 668.50,1.4045E-004
 669.00,1.3961E-004
 669.50,1.5657E-004
 670.00,1.8449E-004
 670.50,1.8341E-004
 671.00,1.4451E-004
 671.50,1.1830E-004
 672.00,1.1510E-004
 672.50,1.2018E-004
 673.00,1.0017E-004
 673.50,7.0184E-005
 674.00,5.0667E-005
 674.50,5.4365E-005
 675.00,4.6885E-005
 675.50,6.2276E-005
 676.00,5.5033E-005
 676.50,6.5870E-005
 677.00,5.9480E-005
 677.50,4.8058E-005
 678.00,3.5968E-005
 678.50,2.8463E-005
 679.00,1.8824E-005
 679.50,2.6129E-005
 680.00,5.0077E-005
 680.50,1.1535E-004
 681.00,1.4303E-004
 681.50,1.3857E-004
 682.00,1.2566E-004
 682.50,1.2244E-004
 683.00,1.3140E-004
 683.50,1.3492E-004
 684.00,1.6237E-004
 684.50,1.8500E-004
 685.00,1.8395E-004
 685.50,1.6856E-004
 686.00,2.0386E-004
 686.50,3.0237E-004
 687.00,4.2688E-004
 687.50,4.9126E-004
 688.00,4.7522E-004
 688.50,4.0803E-004
 689.00,3.1010E-004
 689.50,1.9685E-004
 690.00,7.8136E-005
 690.50,4.0187E-005
 691.00,4.2306E-005
 691.50,2.9106E-005
 692.00,3.2642E-005
 692.50,1.0650E-004
 693.00,2.6882E-004
 693.50,3.9026E-004
 694.00,3.6889E-004
 694.50,2.6385E-004
 695.00,1.1233E-004
 695.50,0.0000E+000
 696.00,0.0000E+000
 696.50,0.0000E+000
 697.00,2.5876E-006
 697.50,0.0000E+000
 698.00,0.0000E+000
 698.50,0.0000E+000
 699.00,0.0000E+000
 699.50,0.0000E+000
 700.00,0.0000E+000
 700.50,2.3293E-005
 701.00,3.5050E-005
 701.50,8.6903E-005
 702.00,1.2570E-004
 702.50,1.3678E-004
 703.00,1.1466E-004
 703.50,1.2463E-004
 704.00,2.1032E-004
 704.50,3.0098E-004
 705.00,4.2440E-004
 705.50,6.3684E-004
 706.00,9.8473E-004
 706.50,1.2713E-003
 707.00,1.4014E-003
 707.50,1.3861E-003
 708.00,1.4336E-003
 708.50,1.5380E-003
 709.00,1.5716E-003
 709.50,1.3784E-003
 710.00,1.0335E-003
 710.50,7.4982E-004
 711.00,7.0753E-004
 711.50,9.2513E-004
 712.00,1.1782E-003
 712.50,1.2597E-003
 713.00,1.0600E-003
 713.50,7.0834E-004
 714.00,4.0749E-004
 714.50,2.0151E-004
 715.00,4.8498E-005
 715.50,0.0000E+000
 716.00,0.0000E+000
 716.50,0.0000E+000
 717.00,0.0000E+000
 717.50,0.0000E+000
 718.00,0.0000E+000
 718.50,0.0000E+000
 719.00,0.0000E+000
 719.50,0.0000E+000
 720.00,0.0000E+000
 720.50,0.0000E+000
 721.00,0.0000E+000
 721.50,0.0000E+000
 722.00,0.0000E+000
 722.50,0.0000E+000
 723.00,0.0000E+000
 723.50,0.0000E+000
 724.00,0.0000E+000
 724.50,0.0000E+000
 725.00,0.0000E+000
 725.50,0.0000E+000
 726.00,0.0000E+000
 726.50,0.0000E+000
 727.00,0.0000E+000
 727.50,0.0000E+000
 728.00,0.0000E+000
 728.50,0.0000E+000
 729.00,0.0000E+000
 729.50,0.0000E+000
 730.00,0.0000E+000
 730.50,0.0000E+000
 731.00,0.0000E+000
 731.50,0.0000E+000
 732.00,0.0000E+000
 732.50,0.0000E+000
 733.00,0.0000E+000
 733.50,0.0000E+000
 734.00,0.0000E+000
 734.50,0.0000E+000
 735.00,0.0000E+000
 735.50,0.0000E+000
 736.00,0.0000E+000
 736.50,0.0000E+000
 737.00,0.0000E+000
 737.50,0.0000E+000
 738.00,0.0000E+000
 738.50,0.0000E+000
 739.00,0.0000E+000
 739.50,0.0000E+000
 740.00,0.0000E+000
 740.50,0.0000E+000
 741.00,0.0000E+000
 741.50,0.0000E+000
 742.00,0.0000E+000
 742.50,0.0000E+000
 743.00,0.0000E+000
 743.50,0.0000E+000
 744.00,0.0000E+000
 744.50,0.0000E+000
 745.00,0.0000E+000
 745.50,0.0000E+000
 746.00,0.0000E+000
 746.50,0.0000E+000
 747.00,0.0000E+000
 747.50,0.0000E+000
 748.00,0.0000E+000
 748.50,0.0000E+000
 749.00,0.0000E+000
 749.50,0.0000E+000
 750.00,0.0000E+000
 750.50,0.0000E+000
 751.00,0.0000E+000
 751.50,0.0000E+000
 752.00,0.0000E+000
 752.50,0.0000E+000
 753.00,0.0000E+000
 753.50,0.0000E+000
 754.00,0.0000E+000
 754.50,0.0000E+000
 755.00,0.0000E+000
 755.50,0.0000E+000
 756.00,0.0000E+000
 756.50,0.0000E+000
 757.00,0.0000E+000
 757.50,0.0000E+000
 758.00,0.0000E+000
 758.50,0.0000E+000
 759.00,0.0000E+000
 759.50,0.0000E+000
 760.00,0.0000E+000
 760.50,0.0000E+000
 761.00,0.0000E+000
 761.50,0.0000E+000
 762.00,0.0000E+000
 762.50,0.0000E+000
 763.00,0.0000E+000
 763.50,0.0000E+000
 764.00,0.0000E+000
 764.50,0.0000E+000
 765.00,0.0000E+000
 765.50,0.0000E+000
 766.00,0.0000E+000
 766.50,0.0000E+000
 767.00,0.0000E+000
 767.50,0.0000E+000
 768.00,0.0000E+000
 768.50,0.0000E+000
 769.00,0.0000E+000
 769.50,0.0000E+000
 770.00,0.0000E+000
 770.50,0.0000E+000
 771.00,0.0000E+000
 771.50,0.0000E+000
 772.00,0.0000E+000
 772.50,0.0000E+000
 773.00,0.0000E+000
 773.50,0.0000E+000
 774.00,0.0000E+000
 774.50,0.0000E+000
 775.00,0.0000E+000
 775.50,0.0000E+000
 776.00,0.0000E+000
 776.50,0.0000E+000
 777.00,0.0000E+000
 777.50,0.0000E+000
 778.00,0.0000E+000
 778.50,0.0000E+000
 779.00,0.0000E+000
 779.50,0.0000E+000
 780.00,0.0000E+000
 780.50,0.0000E+000
 781.00,0.0000E+000
 781.50,0.0000E+000
 782.00,0.0000E+000
 782.50,0.0000E+000
 783.00,0.0000E+000
 783.50,0.0000E+000
 784.00,0.0000E+000
 784.50,0.0000E+000
 785.00,0.0000E+000
 785.50,0.0000E+000
 786.00,0.0000E+000
 786.50,0.0000E+000
 787.00,0.0000E+000
 787.50,0.0000E+000
 788.00,0.0000E+000
 788.50,0.0000E+000
 789.00,0.0000E+000
 789.50,0.0000E+000
 790.00,0.0000E+000
 790.50,0.0000E+000
 791.00,0.0000E+000
 791.50,0.0000E+000
 792.00,0.0000E+000
 792.50,0.0000E+000
 793.00,0.0000E+000
 793.50,0.0000E+000
 794.00,0.0000E+000
 794.50,0.0000E+000
 795.00,0.0000E+000
 795.50,0.0000E+000
 796.00,0.0000E+000
 796.50,0.0000E+000
 797.00,0.0000E+000
 797.50,0.0000E+000
 798.00,0.0000E+000
 798.50,0.0000E+000
 799.00,0.0000E+000
 799.50,0.0000E+000
 800.00,0.0000E+000
 800.50,0.0000E+000
 801.00,0.0000E+000
 801.50,0.0000E+000
 802.00,0.0000E+000
 802.50,0.0000E+000
 803.00,0.0000E+000
 803.50,0.0000E+000
 804.00,0.0000E+000
 804.50,0.0000E+000
 805.00,0.0000E+000
 805.50,0.0000E+000
 806.00,0.0000E+000
 806.50,0.0000E+000
 807.00,0.0000E+000
 807.50,0.0000E+000
 808.00,0.0000E+000
 808.50,0.0000E+000
 809.00,0.0000E+000
 809.50,0.0000E+000
 810.00,0.0000E+000
 810.50,0.0000E+000
 811.00,0.0000E+000
 811.50,0.0000E+000
 812.00,3.8228E-006
 812.50,0.0000E+000
 813.00,0.0000E+000
 813.50,0.0000E+000
 814.00,0.0000E+000
 814.50,0.0000E+000
 815.00,0.0000E+000
 815.50,0.0000E+000
 816.00,0.0000E+000
 816.50,0.0000E+000
 817.00,0.0000E+000
 817.50,0.0000E+000
 818.00,0.0000E+000
 818.50,0.0000E+000
 819.00,0.0000E+000
 819.50,0.0000E+000
 820.00,0.0000E+000
 820.50,0.0000E+000
 821.00,0.0000E+000
 821.50,0.0000E+000
 822.00,0.0000E+000
 822.50,0.0000E+000
 823.00,0.0000E+000
 823.50,0.0000E+000
 824.00,0.0000E+000
 824.50,0.0000E+000
 825.00,0.0000E+000
 825.50,0.0000E+000
 826.00,0.0000E+000
 826.50,0.0000E+000
 827.00,0.0000E+000
 827.50,0.0000E+000
 828.00,0.0000E+000
 828.50,0.0000E+000
 829.00,0.0000E+000
 829.50,0.0000E+000
 830.00,0.0000E+000
 830.50,0.0000E+000
 831.00,0.0000E+000
 831.50,0.0000E+000
 832.00,0.0000E+000
 832.50,0.0000E+000
 833.00,0.0000E+000
 833.50,0.0000E+000
 834.00,0.0000E+000
 834.50,0.0000E+000
 835.00,0.0000E+000
 835.50,0.0000E+000
 836.00,0.0000E+000
 836.50,0.0000E+000
 837.00,0.0000E+000
 837.50,0.0000E+000
 838.00,0.0000E+000
 838.50,0.0000E+000
 839.00,0.0000E+000
 839.50,0.0000E+000
 840.00,0.0000E+000
 840.50,0.0000E+000
 841.00,0.0000E+000
 841.50,0.0000E+000
 842.00,0.0000E+000
 842.50,0.0000E+000
 843.00,0.0000E+000
 843.50,0.0000E+000
 844.00,0.0000E+000
 844.50,0.0000E+000
 845.00,0.0000E+000
 845.50,0.0000E+000
 846.00,0.0000E+000
 846.50,0.0000E+000
 847.00,0.0000E+000
 847.50,0.0000E+000
 848.00,0.0000E+000
 848.50,0.0000E+000
 849.00,0.0000E+000
 849.50,0.0000E+000
 850.00,0.0000E+000
 850.50,0.0000E+000
 851.00,0.0000E+000
 851.50,0.0000E+000
 852.00,0.0000E+000
 852.50,0.0000E+000
 853.00,0.0000E+000
 853.50,0.0000E+000
 854.00,0.0000E+000
 854.50,0.0000E+000
 855.00,0.0000E+000
 855.50,0.0000E+000
 856.00,0.0000E+000
 856.50,0.0000E+000
 857.00,0.0000E+000
 857.50,0.0000E+000
 858.00,0.0000E+000
 858.50,0.0000E+000
 859.00,0.0000E+000
 859.50,0.0000E+000
 860.00,0.0000E+000
 860.50,0.0000E+000
 861.00,0.0000E+000
 861.50,0.0000E+000
 862.00,0.0000E+000
 862.50,0.0000E+000
 863.00,0.0000E+000
 863.50,0.0000E+000
 864.00,0.0000E+000
 864.50,0.0000E+000
 865.00,0.0000E+000
 865.50,0.0000E+000
 866.00,0.0000E+000
 866.50,0.0000E+000
 867.00,0.0000E+000
 867.50,0.0000E+000
 868.00,0.0000E+000
 868.50,0.0000E+000
 869.00,0.0000E+000
 869.50,0.0000E+000
 870.00,0.0000E+000
 870.50,0.0000E+000
 871.00,0.0000E+000
 871.50,0.0000E+000
 872.00,0.0000E+000
 872.50,0.0000E+000
 873.00,0.0000E+000
 873.50,0.0000E+000
 874.00,0.0000E+000
 874.50,0.0000E+000
 875.00,0.0000E+000
 875.50,0.0000E+000
 876.00,0.0000E+000
 876.50,0.0000E+000
 877.00,0.0000E+000
 877.50,0.0000E+000
 878.00,0.0000E+000
 878.50,0.0000E+000
 879.00,0.0000E+000
 879.50,0.0000E+000
 880.00,0.0000E+000
 880.50,0.0000E+000
 881.00,0.0000E+000
 881.50,0.0000E+000
 882.00,0.0000E+000
 882.50,0.0000E+000
 883.00,0.0000E+000
 883.50,0.0000E+000
 884.00,0.0000E+000
 884.50,0.0000E+000
 885.00,0.0000E+000
 885.50,0.0000E+000
 886.00,0.0000E+000
 886.50,0.0000E+000
 887.00,0.0000E+000
 887.50,0.0000E+000
 888.00,0.0000E+000
 888.50,0.0000E+000
 889.00,0.0000E+000
 889.50,0.0000E+000
 890.00,0.0000E+000
 890.50,0.0000E+000
 891.00,0.0000E+000
 891.50,0.0000E+000
 892.00,0.0000E+000
 892.50,0.0000E+000
 893.00,0.0000E+000
 893.50,0.0000E+000
 894.00,0.0000E+000
 894.50,0.0000E+000
 895.00,0.0000E+000
 895.50,0.0000E+000
 896.00,0.0000E+000
 896.50,0.0000E+000
 897.00,0.0000E+000
 897.50,0.0000E+000
 898.00,0.0000E+000
 898.50,0.0000E+000
 899.00,0.0000E+000
 899.50,0.0000E+000

