wavelength,intensity
 273.00,0.0000E+000
 273.50,0.0000E+000
 274.00,0.0000E+000
 274.50,0.0000E+000
 275.00,0.0000E+000
 275.50,0.0000E+000
 276.00,0.0000E+000
 276.50,0.0000E+000
 277.00,0.0000E+000
 277.50,0.0000E+000
 278.00,0.0000E+000
 278.50,0.0000E+000
 279.00,0.0000E+000
 279.50,0.0000E+000
 280.00,0.0000E+000
 280.50,0.0000E+000
 281.00,0.0000E+000
 281.50,0.0000E+000
 282.00,0.0000E+000
 282.50,0.0000E+000
 283.00,0.0000E+000
 283.50,0.0000E+000
 284.00,0.0000E+000
 284.50,0.0000E+000
 285.00,0.0000E+000
 285.50,0.0000E+000
 286.00,0.0000E+000
 286.50,0.0000E+000
 287.00,0.0000E+000
 287.50,0.0000E+000
 288.00,0.0000E+000
 288.50,0.0000E+000
 289.00,0.0000E+000
 289.50,0.0000E+000
 290.00,0.0000E+000
 290.50,0.0000E+000
 291.00,0.0000E+000
 291.50,0.0000E+000
 292.00,0.0000E+000
 292.50,0.0000E+000
 293.00,0.0000E+000
 293.50,0.0000E+000
 294.00,0.0000E+000
 294.50,0.0000E+000
 295.00,0.0000E+000
 295.50,0.0000E+000
 296.00,0.0000E+000
 296.50,0.0000E+000
 297.00,0.0000E+000
 297.50,0.0000E+000
 298.00,0.0000E+000
 298.50,0.0000E+000
 299.00,0.0000E+000
 299.50,0.0000E+000
 300.00,0.0000E+000
 300.50,0.0000E+000
 301.00,0.0000E+000
 301.50,0.0000E+000
 302.00,0.0000E+000
 302.50,0.0000E+000
 303.00,0.0000E+000
 303.50,0.0000E+000
 304.00,0.0000E+000
 304.50,0.0000E+000
 305.00,0.0000E+000
 305.50,0.0000E+000
 306.00,0.0000E+000
 306.50,0.0000E+000
 307.00,0.0000E+000
 307.50,0.0000E+000
 308.00,0.0000E+000
 308.50,0.0000E+000
 309.00,0.0000E+000
 309.50,0.0000E+000
 310.00,0.0000E+000
 310.50,0.0000E+000
 311.00,0.0000E+000
 311.50,0.0000E+000
 312.00,0.0000E+000
 312.50,0.0000E+000
 313.00,0.0000E+000
 313.50,0.0000E+000
 314.00,0.0000E+000
 314.50,0.0000E+000
 315.00,0.0000E+000
 315.50,0.0000E+000
 316.00,0.0000E+000
 316.50,0.0000E+000
 317.00,0.0000E+000
 317.50,0.0000E+000
 318.00,0.0000E+000
 318.50,0.0000E+000
 319.00,0.0000E+000
 319.50,0.0000E+000
 320.00,0.0000E+000
 320.50,0.0000E+000
 321.00,0.0000E+000
 321.50,0.0000E+000
 322.00,0.0000E+000
 322.50,0.0000E+000
 323.00,0.0000E+000
 323.50,0.0000E+000
 324.00,0.0000E+000
 324.50,0.0000E+000
 325.00,0.0000E+000
 325.50,0.0000E+000
 326.00,0.0000E+000
 326.50,0.0000E+000
 327.00,0.0000E+000
 327.50,0.0000E+000
 328.00,0.0000E+000
 328.50,0.0000E+000
 329.00,0.0000E+000
 329.50,0.0000E+000
 330.00,0.0000E+000
 330.50,0.0000E+000
 331.00,0.0000E+000
 331.50,0.0000E+000
 332.00,0.0000E+000
 332.50,0.0000E+000
 333.00,0.0000E+000
 333.50,0.0000E+000
 334.00,0.0000E+000
 334.50,0.0000E+000
 335.00,0.0000E+000
 335.50,0.0000E+000
 336.00,0.0000E+000
 336.50,0.0000E+000
 337.00,0.0000E+000
 337.50,0.0000E+000
 338.00,0.0000E+000
 338.50,0.0000E+000
 339.00,0.0000E+000
 339.50,0.0000E+000
 340.00,0.0000E+000
 340.50,0.0000E+000
 341.00,0.0000E+000
 341.50,0.0000E+000
 342.00,0.0000E+000
 342.50,0.0000E+000
 343.00,0.0000E+000
 343.50,0.0000E+000
 344.00,0.0000E+000
 344.50,0.0000E+000
 345.00,0.0000E+000
 345.50,0.0000E+000
 346.00,0.0000E+000
 346.50,0.0000E+000
 347.00,0.0000E+000
 347.50,0.0000E+000
 348.00,0.0000E+000
 348.50,0.0000E+000
 349.00,0.0000E+000
 349.50,0.0000E+000
 350.00,0.0000E+000
 350.50,0.0000E+000
 351.00,0.0000E+000
 351.50,0.0000E+000
 352.00,0.0000E+000
 352.50,0.0000E+000
 353.00,0.0000E+000
 353.50,0.0000E+000
 354.00,0.0000E+000
 354.50,0.0000E+000
 355.00,0.0000E+000
 355.50,0.0000E+000
 356.00,0.0000E+000
 356.50,0.0000E+000
 357.00,0.0000E+000
 357.50,0.0000E+000
 358.00,0.0000E+000
 358.50,0.0000E+000
 359.00,0.0000E+000
 359.50,0.0000E+000
 360.00,0.0000E+000
 360.50,0.0000E+000
 361.00,0.0000E+000
 361.50,0.0000E+000
 362.00,0.0000E+000
 362.50,0.0000E+000
 363.00,0.0000E+000
 363.50,0.0000E+000
 364.00,2.6384E-005
 364.50,7.7304E-005
 365.00,9.5918E-005
 365.50,5.9226E-005
 366.00,8.9269E-006
 366.50,0.0000E+000
 367.00,0.0000E+000
 367.50,0.0000E+000
 368.00,0.0000E+000
 368.50,0.0000E+000
 369.00,0.0000E+000
 369.50,0.0000E+000
 370.00,0.0000E+000
 370.50,0.0000E+000
 371.00,0.0000E+000
 371.50,0.0000E+000
 372.00,0.0000E+000
 372.50,0.0000E+000
 373.00,0.0000E+000
 373.50,0.0000E+000
 374.00,0.0000E+000
 374.50,0.0000E+000
 375.00,0.0000E+000
 375.50,0.0000E+000
 376.00,0.0000E+000
 376.50,0.0000E+000
 377.00,0.0000E+000
 377.50,0.0000E+000
 378.00,0.0000E+000
 378.50,0.0000E+000
 379.00,0.0000E+000
 379.50,0.0000E+000
 380.00,0.0000E+000
 380.50,0.0000E+000
 381.00,0.0000E+000
 381.50,0.0000E+000
 382.00,0.0000E+000
 382.50,0.0000E+000
 383.00,0.0000E+000
 383.50,0.0000E+000
 384.00,0.0000E+000
 384.50,0.0000E+000
 385.00,0.0000E+000
 385.50,0.0000E+000
 386.00,0.0000E+000
 386.50,0.0000E+000
 387.00,0.0000E+000
 387.50,0.0000E+000
 388.00,0.0000E+000
 388.50,0.0000E+000
 389.00,0.0000E+000
 389.50,0.0000E+000
 390.00,0.0000E+000
 390.50,0.0000E+000
 391.00,0.0000E+000
 391.50,0.0000E+000
 392.00,0.0000E+000
 392.50,0.0000E+000
 393.00,0.0000E+000
 393.50,0.0000E+000
 394.00,0.0000E+000
 394.50,0.0000E+000
 395.00,0.0000E+000
 395.50,0.0000E+000
 396.00,0.0000E+000
 396.50,0.0000E+000
 397.00,0.0000E+000
 397.50,0.0000E+000
 398.00,0.0000E+000
 398.50,0.0000E+000
 399.00,0.0000E+000
 399.50,0.0000E+000
 400.00,0.0000E+000
 400.50,0.0000E+000
 401.00,0.0000E+000
 401.50,0.0000E+000
 402.00,0.0000E+000
 402.50,0.0000E+000
 403.00,2.5585E-005
 403.50,1.6571E-004
 404.00,3.3637E-004
 404.50,4.1198E-004
 405.00,3.6661E-004
 405.50,2.0211E-004
 406.00,5.5656E-005
 406.50,0.0000E+000
 407.00,0.0000E+000
 407.50,0.0000E+000
 408.00,0.0000E+000
 408.50,0.0000E+000
 409.00,0.0000E+000
 409.50,0.0000E+000
 410.00,0.0000E+000
 410.50,0.0000E+000
 411.00,0.0000E+000
 411.50,0.0000E+000
 412.00,0.0000E+000
 412.50,0.0000E+000
 413.00,0.0000E+000
 413.50,0.0000E+000
 414.00,0.0000E+000
 414.50,0.0000E+000
 415.00,0.0000E+000
 415.50,0.0000E+000
 416.00,0.0000E+000
 416.50,0.0000E+000
 417.00,0.0000E+000
 417.50,0.0000E+000
 418.00,0.0000E+000
 418.50,0.0000E+000
 419.00,0.0000E+000
 419.50,0.0000E+000
 420.00,0.0000E+000
 420.50,0.0000E+000
 421.00,0.0000E+000
 421.50,0.0000E+000
 422.00,0.0000E+000
 422.50,0.0000E+000
 423.00,0.0000E+000
 423.50,0.0000E+000
 424.00,0.0000E+000
 424.50,0.0000E+000
 425.00,0.0000E+000
 425.50,0.0000E+000
 426.00,0.0000E+000
 426.50,0.0000E+000
 427.00,0.0000E+000
 427.50,0.0000E+000
 428.00,0.0000E+000
 428.50,0.0000E+000
 429.00,0.0000E+000
 429.50,0.0000E+000
 430.00,0.0000E+000
 430.50,0.0000E+000
 431.00,0.0000E+000
 431.50,0.0000E+000
 432.00,0.0000E+000
 432.50,0.0000E+000
 433.00,0.0000E+000
 433.50,6.4707E-006
 434.00,1.3454E-004
 434.50,5.5973E-004
 435.00,1.1276E-003
 435.50,1.5329E-003
 436.00,1.4812E-003
 436.50,1.0560E-003
 437.00,5.5022E-004
 437.50,1.7516E-004
 438.00,2.1593E-005
 438.50,0.0000E+000
 439.00,0.0000E+000
 439.50,0.0000E+000
 440.00,0.0000E+000
 440.50,0.0000E+000
 441.00,0.0000E+000
 441.50,0.0000E+000
 442.00,0.0000E+000
 442.50,0.0000E+000
 443.00,0.0000E+000
 443.50,0.0000E+000
 444.00,0.0000E+000
 444.50,0.0000E+000
 445.00,1.5152E-005
 445.50,1.7063E-005
 446.00,4.9991E-006
 446.50,0.0000E+000
 447.00,0.0000E+000
 447.50,0.0000E+000
 448.00,0.0000E+000
 448.50,0.0000E+000
 449.00,0.0000E+000
 449.50,0.0000E+000
 450.00,0.0000E+000
 450.50,0.0000E+000
 451.00,0.0000E+000
 451.50,0.0000E+000
 452.00,2.0525E-006
 452.50,0.0000E+000
 453.00,0.0000E+000
 453.50,0.0000E+000
 454.00,0.0000E+000
 454.50,0.0000E+000
 455.00,0.0000E+000
 455.50,0.0000E+000
 456.00,0.0000E+000
 456.50,0.0000E+000
 457.00,0.0000E+000
 457.50,0.0000E+000
 458.00,0.0000E+000
 458.50,0.0000E+000
 459.00,0.0000E+000
 459.50,0.0000E+000
 460.00,0.0000E+000
 460.50,0.0000E+000
 461.00,0.0000E+000
 461.50,0.0000E+000
 462.00,0.0000E+000
 462.50,0.0000E+000
 463.00,0.0000E+000
 463.50,0.0000E+000
 464.00,0.0000E+000
 464.50,0.0000E+000
 465.00,0.0000E+000
 465.50,0.0000E+000
 466.00,0.0000E+000
 466.50,0.0000E+000
 467.00,0.0000E+000
 467.50,0.0000E+000
 468.00,0.0000E+000
 468.50,0.0000E+000
 469.00,3.3494E-006
 469.50,1.4463E-007
 470.00,2.0318E-006
 470.50,0.0000E+000
 471.00,0.0000E+000
 471.50,0.0000E+000
 472.00,0.0000E+000
 472.50,0.0000E+000
 473.00,0.0000E+000
 473.50,0.0000E+000
 474.00,0.0000E+000
 474.50,0.0000E+000
 475.00,0.0000E+000
 475.50,0.0000E+000
 476.00,0.0000E+000
 476.50,0.0000E+000
 477.00,0.0000E+000
 477.50,0.0000E+000
 478.00,0.0000E+000
 478.50,4.2775E-006
 479.00,3.3462E-005
 479.50,5.5726E-005
 480.00,7.4088E-005
 480.50,8.5163E-005
 481.00,7.8046E-005
 481.50,7.8668E-005
 482.00,7.5225E-005
 482.50,9.4734E-005
 483.00,1.2294E-004
 483.50,1.6347E-004
 484.00,2.1752E-004
 484.50,2.7399E-004
 485.00,3.4196E-004
 485.50,3.9678E-004
 486.00,4.2714E-004
 486.50,4.4079E-004
 487.00,4.3494E-004
 487.50,4.3109E-004
 488.00,4.1781E-004
 488.50,3.8793E-004
 489.00,3.5602E-004
 489.50,3.3242E-004
 490.00,3.1979E-004
 490.50,3.0683E-004
 491.00,3.0281E-004
 491.50,2.9864E-004
 492.00,2.7500E-004
 492.50,2.5600E-004
 493.00,2.1891E-004
 493.50,1.9367E-004
 494.00,1.8847E-004
 494.50,1.8317E-004
 495.00,1.8122E-004
 495.50,1.7403E-004
 496.00,1.4721E-004
 496.50,1.2577E-004
 497.00,1.0728E-004
 497.50,1.0959E-004
 498.00,1.1058E-004
 498.50,9.5211E-005
 499.00,7.3944E-005
 499.50,5.7968E-005
 500.00,5.5076E-005
 500.50,5.7586E-005
 501.00,5.5113E-005
 501.50,4.5482E-005
 502.00,2.7250E-005
 502.50,1.2608E-005
 503.00,1.2122E-006
 503.50,7.7362E-006
 504.00,6.3103E-006
 504.50,2.9940E-006
 505.00,1.3610E-006
 505.50,4.0261E-007
 506.00,1.0853E-005
 506.50,2.8460E-005
 507.00,3.4416E-005
 507.50,2.1948E-005
 508.00,5.2742E-006
 508.50,2.4884E-008
 509.00,0.0000E+000
 509.50,7.4858E-006
 510.00,1.7826E-005
 510.50,2.5975E-005
 511.00,2.1518E-005
 511.50,1.5000E-005
 512.00,8.0760E-006
 512.50,2.0888E-007
 513.00,0.0000E+000
 513.50,0.0000E+000
 514.00,0.0000E+000
 514.50,0.0000E+000
 515.00,1.3206E-005
 515.50,2.3418E-005
 516.00,4.0488E-005
 516.50,3.8668E-005
 517.00,4.3371E-005
 517.50,3.3468E-005
 518.00,1.8595E-005
 518.50,2.2270E-006
 519.00,0.0000E+000
 519.50,0.0000E+000
 520.00,0.0000E+000
 520.50,0.0000E+000
 521.00,0.0000E+000
 521.50,0.0000E+000
 522.00,0.0000E+000
 522.50,0.0000E+000
 523.00,4.8163E-006
 523.50,1.4836E-005
 524.00,9.1814E-006
 524.50,0.0000E+000
 525.00,2.4575E-006
 525.50,4.7333E-006
 526.00,1.7772E-005
 526.50,2.0093E-005
 527.00,2.4954E-005
 527.50,1.5255E-005
 528.00,0.0000E+000
 528.50,0.0000E+000
 529.00,3.0790E-007
 529.50,1.3992E-005
 530.00,4.0242E-005
 530.50,4.6674E-005
 531.00,4.3356E-005
 531.50,5.6848E-005
 532.00,7.3197E-005
 532.50,9.6770E-005
 533.00,1.0577E-004
 533.50,9.8378E-005
 534.00,8.8068E-005
 534.50,7.9718E-005
 535.00,8.0557E-005
 535.50,9.4669E-005
 536.00,1.1964E-004
 536.50,1.8556E-004
 537.00,2.6555E-004
 537.50,3.5293E-004
 538.00,4.2524E-004
 538.50,5.2478E-004
 539.00,7.0083E-004
 539.50,9.7474E-004
 540.00,1.3558E-003
 540.50,1.8541E-003
 541.00,2.3540E-003
 541.50,2.7078E-003
 542.00,2.7637E-003
 542.50,2.5970E-003
 543.00,2.3967E-003
 543.50,2.2834E-003
 544.00,2.3577E-003
 544.50,2.6921E-003
 545.00,3.3302E-003
 545.50,3.9773E-003
 546.00,4.0989E-003
 546.50,3.6517E-003
 547.00,2.8492E-003
 547.50,2.1437E-003
 548.00,1.7407E-003
 548.50,1.4870E-003
 549.00,1.3202E-003
 549.50,1.1538E-003
 550.00,9.9553E-004
 550.50,8.3420E-004
 551.00,7.0486E-004
 551.50,5.9941E-004
 552.00,5.1491E-004
 552.50,4.4483E-004
 553.00,3.7985E-004
 553.50,3.2038E-004
 554.00,2.5738E-004
 554.50,2.0978E-004
 555.00,1.6687E-004
 555.50,1.4781E-004
 556.00,1.3246E-004
 556.50,1.2250E-004
 557.00,1.2831E-004
 557.50,1.2034E-004
 558.00,1.0722E-004
 558.50,7.7193E-005
 559.00,6.1969E-005
 559.50,5.9753E-005
 560.00,6.4258E-005
 560.50,5.9011E-005
 561.00,4.9145E-005
 561.50,4.8330E-005
 562.00,3.7315E-005
 562.50,2.9551E-005
 563.00,2.4975E-005
 563.50,7.9168E-006
 564.00,2.1522E-005
 564.50,3.3341E-005
 565.00,5.0902E-005
 565.50,4.3180E-005
 566.00,1.8591E-005
 566.50,0.0000E+000
 567.00,0.0000E+000
 567.50,0.0000E+000
 568.00,0.0000E+000
 568.50,0.0000E+000
 569.00,0.0000E+000
 569.50,0.0000E+000
 570.00,0.0000E+000
 570.50,0.0000E+000
 571.00,0.0000E+000
 571.50,2.0322E-006
 572.00,2.3631E-005
 572.50,1.7709E-005
 573.00,4.6429E-006
 573.50,0.0000E+000
 574.00,0.0000E+000
 574.50,3.0672E-006
 575.00,4.6822E-005
 575.50,1.2866E-004
 576.00,2.6357E-004
 576.50,3.8685E-004
 577.00,4.4332E-004
 577.50,4.3179E-004
 578.00,4.4364E-004
 578.50,5.1414E-004
 579.00,5.8791E-004
 579.50,5.9804E-004
 580.00,5.5760E-004
 580.50,5.0853E-004
 581.00,4.9810E-004
 581.50,5.1997E-004
 582.00,5.7308E-004
 582.50,6.1933E-004
 583.00,6.4196E-004
 583.50,6.1672E-004
 584.00,5.9563E-004
 584.50,5.8294E-004
 585.00,6.0290E-004
 585.50,6.4608E-004
 586.00,7.4497E-004
 586.50,8.9407E-004
 587.00,1.0104E-003
 587.50,9.8836E-004
 588.00,8.2428E-004
 588.50,6.3025E-004
 589.00,4.8878E-004
 589.50,4.1163E-004
 590.00,3.9002E-004
 590.50,4.2188E-004
 591.00,5.1356E-004
 591.50,6.3746E-004
 592.00,7.7169E-004
 592.50,8.8487E-004
 593.00,9.4136E-004
 593.50,8.9853E-004
 594.00,7.6072E-004
 594.50,5.9036E-004
 595.00,4.5610E-004
 595.50,3.8458E-004
 596.00,3.6033E-004
 596.50,3.5450E-004
 597.00,3.7156E-004
 597.50,4.1155E-004
 598.00,4.8165E-004
 598.50,5.7057E-004
 599.00,6.4938E-004
 599.50,6.5012E-004
 600.00,5.9444E-004
 600.50,4.8614E-004
 601.00,3.9196E-004
 601.50,3.1140E-004
 602.00,2.6273E-004
 602.50,2.4065E-004
 603.00,2.2795E-004
 603.50,2.3847E-004
 604.00,2.5050E-004
 604.50,2.6692E-004
 605.00,2.8281E-004
 605.50,3.1242E-004
 606.00,3.6451E-004
 606.50,4.2301E-004
 607.00,5.0808E-004
 607.50,6.3564E-004
 608.00,8.5104E-004
 608.50,1.2018E-003
 609.00,1.7797E-003
 609.50,2.9172E-003
 610.00,4.7295E-003
 610.50,6.9635E-003
 611.00,8.6052E-003
 611.50,8.8481E-003
 612.00,7.5860E-003
 612.50,5.8418E-003
 613.00,4.4325E-003
 613.50,3.5930E-003
 614.00,3.0905E-003
 614.50,2.6962E-003
 615.00,2.3053E-003
 615.50,1.8922E-003
 616.00,1.4901E-003
 616.50,1.1476E-003
 617.00,9.1426E-004
 617.50,7.6255E-004
 618.00,6.5826E-004
 618.50,5.7314E-004
 619.00,5.3172E-004
 619.50,5.2057E-004
 620.00,5.2297E-004
 620.50,5.4151E-004
 621.00,5.5794E-004
 621.50,5.8528E-004
 622.00,5.8347E-004
 622.50,5.8724E-004
 623.00,6.0644E-004
 623.50,6.3949E-004
 624.00,6.7538E-004
 624.50,7.0868E-004
 625.00,7.1163E-004
 625.50,7.1908E-004
 626.00,7.3454E-004
 626.50,7.3790E-004
 627.00,7.1099E-004
 627.50,6.7090E-004
 628.00,6.6481E-004
 628.50,6.9081E-004
 629.00,7.4515E-004
 629.50,8.4223E-004
 630.00,9.9671E-004
 630.50,1.1247E-003
 631.00,1.1418E-003
 631.50,9.8138E-004
 632.00,7.2138E-004
 632.50,4.6507E-004
 633.00,3.0480E-004
 633.50,2.1423E-004
 634.00,1.9050E-004
 634.50,1.7403E-004
 635.00,1.7183E-004
 635.50,1.5955E-004
 636.00,1.4089E-004
 636.50,1.1757E-004
 637.00,7.5831E-005
 637.50,3.8414E-005
 638.00,1.3712E-005
 638.50,2.7527E-006
 639.00,1.8229E-007
 639.50,4.9570E-006
 640.00,9.4260E-007
 640.50,1.7135E-006
 641.00,0.0000E+000
 641.50,9.8151E-006
 642.00,1.6400E-005
 642.50,6.5083E-006
 643.00,0.0000E+000
 643.50,0.0000E+000
 644.00,2.5321E-005
 644.50,3.6281E-005
 645.00,4.3486E-005
 645.50,4.6721E-005
 646.00,4.4889E-005
 646.50,2.7248E-005
 647.00,0.0000E+000
 647.50,7.4375E-006
 648.00,4.9868E-005
 648.50,8.1865E-005
 649.00,1.0993E-004
 649.50,1.5935E-004
 650.00,2.4973E-004
 650.50,2.8318E-004
 651.00,2.5707E-004
 651.50,2.0509E-004
 652.00,1.8858E-004
 652.50,1.9308E-004
 653.00,1.6085E-004
 653.50,1.2374E-004
 654.00,7.0379E-005
 654.50,6.6195E-005
 655.00,4.6353E-005
 655.50,5.0525E-005
 656.00,4.4110E-005
 656.50,5.3755E-005
 657.00,4.8188E-005
 657.50,1.8658E-005
 658.00,3.2273E-006
 658.50,4.2815E-006
 659.00,2.3968E-005
 659.50,3.6259E-005
 660.00,2.1891E-005
 660.50,1.8835E-005
 661.00,1.1766E-005
 661.50,5.0384E-005
 662.00,9.0759E-005
 662.50,1.4178E-004
 663.00,1.3054E-004
 663.50,7.6888E-005
 664.00,2.8472E-005
 664.50,2.1820E-005
 665.00,2.8540E-005
 665.50,1.9338E-005
 666.00,1.6433E-006
 666.50,0.0000E+000
 667.00,0.0000E+000
 667.50,0.0000E+000
 668.00,0.0000E+000
 668.50,0.0000E+000
 669.00,1.0497E-005
 669.50,5.5117E-006
 670.00,0.0000E+000
 670.50,0.0000E+000
 671.00,0.0000E+000
 671.50,0.0000E+000
 672.00,0.0000E+000
 672.50,0.0000E+000
 673.00,0.0000E+000
 673.50,0.0000E+000
 674.00,0.0000E+000
 674.50,0.0000E+000
 675.00,0.0000E+000
 675.50,0.0000E+000
 676.00,0.0000E+000
 676.50,0.0000E+000
 677.00,0.0000E+000
 677.50,0.0000E+000
 678.00,0.0000E+000
 678.50,0.0000E+000
 679.00,0.0000E+000
 679.50,0.0000E+000
 680.00,0.0000E+000
 680.50,1.8271E-005
 681.00,3.2143E-005
 681.50,1.5880E-005
 682.00,3.5484E-007
 682.50,0.0000E+000
 683.00,0.0000E+000
 683.50,2.2498E-005
 684.00,4.5764E-005
 684.50,2.6696E-005
 685.00,7.3952E-006
 685.50,0.0000E+000
 686.00,0.0000E+000
 686.50,0.0000E+000
 687.00,1.5979E-005
 687.50,5.5520E-005
 688.00,7.0194E-005
 688.50,5.4947E-005
 689.00,1.6485E-005
 689.50,0.0000E+000
 690.00,0.0000E+000
 690.50,0.0000E+000
 691.00,0.0000E+000
 691.50,0.0000E+000
 692.00,0.0000E+000
 692.50,0.0000E+000
 693.00,1.2888E-005
 693.50,6.4602E-005
 694.00,6.1920E-005
 694.50,5.6921E-005
 695.00,6.0925E-006
 695.50,0.0000E+000
 696.00,0.0000E+000
 696.50,0.0000E+000
 697.00,0.0000E+000
 697.50,0.0000E+000
 698.00,0.0000E+000
 698.50,0.0000E+000
 699.00,0.0000E+000
 699.50,0.0000E+000
 700.00,0.0000E+000
 700.50,0.0000E+000
 701.00,0.0000E+000
 701.50,0.0000E+000
 702.00,0.0000E+000
 702.50,0.0000E+000
 703.00,0.0000E+000
 703.50,0.0000E+000
 704.00,0.0000E+000
 704.50,1.8739E-005
 705.00,7.9733E-005
 705.50,1.7664E-004
 706.00,2.9255E-004
 706.50,3.9528E-004
 707.00,4.1462E-004
 707.50,3.9557E-004
 708.00,3.9155E-004
 708.50,4.3599E-004
 709.00,4.6553E-004
 709.50,4.1312E-004
 710.00,3.1351E-004
 710.50,2.2561E-004
 711.00,1.9904E-004
 711.50,1.7815E-004
 712.00,2.2470E-004
 712.50,2.6361E-004
 713.00,2.6062E-004
 713.50,1.7153E-004
 714.00,7.8634E-005
 714.50,4.7044E-005
 715.00,7.6940E-006
 715.50,6.4364E-007
 716.00,0.0000E+000
 716.50,0.0000E+000
 717.00,0.0000E+000
 717.50,0.0000E+000
 718.00,0.0000E+000
 718.50,0.0000E+000
 719.00,0.0000E+000
 719.50,0.0000E+000
 720.00,0.0000E+000
 720.50,0.0000E+000
 721.00,0.0000E+000
 721.50,0.0000E+000
 722.00,0.0000E+000
 722.50,0.0000E+000
 723.00,0.0000E+000
 723.50,0.0000E+000
 724.00,0.0000E+000
 724.50,0.0000E+000
 725.00,0.0000E+000
 725.50,0.0000E+000
 726.00,0.0000E+000
 726.50,0.0000E+000
 727.00,0.0000E+000
 727.50,0.0000E+000
 728.00,0.0000E+000
 728.50,0.0000E+000
 729.00,0.0000E+000
 729.50,0.0000E+000
 730.00,0.0000E+000
 730.50,0.0000E+000
 731.00,0.0000E+000
 731.50,0.0000E+000
 732.00,0.0000E+000
 732.50,0.0000E+000
 733.00,0.0000E+000
 733.50,0.0000E+000
 734.00,0.0000E+000
 734.50,0.0000E+000
 735.00,0.0000E+000
 735.50,0.0000E+000
 736.00,0.0000E+000
 736.50,0.0000E+000
 737.00,0.0000E+000
 737.50,0.0000E+000
 738.00,0.0000E+000
 738.50,0.0000E+000
 739.00,0.0000E+000
 739.50,0.0000E+000
 740.00,0.0000E+000
 740.50,0.0000E+000
 741.00,0.0000E+000
 741.50,0.0000E+000
 742.00,0.0000E+000
 742.50,0.0000E+000
 743.00,0.0000E+000
 743.50,0.0000E+000
 744.00,0.0000E+000
 744.50,0.0000E+000
 745.00,0.0000E+000
 745.50,0.0000E+000
 746.00,0.0000E+000
 746.50,0.0000E+000
 747.00,0.0000E+000
 747.50,0.0000E+000
 748.00,0.0000E+000
 748.50,0.0000E+000
 749.00,0.0000E+000
 749.50,0.0000E+000
 750.00,0.0000E+000
 750.50,0.0000E+000
 751.00,0.0000E+000
 751.50,0.0000E+000
 752.00,0.0000E+000
 752.50,0.0000E+000
 753.00,0.0000E+000
 753.50,0.0000E+000
 754.00,0.0000E+000
 754.50,0.0000E+000
 755.00,0.0000E+000
 755.50,0.0000E+000
 756.00,0.0000E+000
 756.50,0.0000E+000
 757.00,0.0000E+000
 757.50,0.0000E+000
 758.00,0.0000E+000
 758.50,0.0000E+000
 759.00,0.0000E+000
 759.50,0.0000E+000
 760.00,0.0000E+000
 760.50,0.0000E+000
 761.00,0.0000E+000
 761.50,0.0000E+000
 762.00,0.0000E+000
 762.50,0.0000E+000
 763.00,0.0000E+000
 763.50,0.0000E+000
 764.00,0.0000E+000
 764.50,0.0000E+000
 765.00,0.0000E+000
 765.50,0.0000E+000
 766.00,0.0000E+000
 766.50,0.0000E+000
 767.00,0.0000E+000
 767.50,0.0000E+000
 768.00,0.0000E+000
 768.50,0.0000E+000
 769.00,0.0000E+000
 769.50,0.0000E+000
 770.00,0.0000E+000
 770.50,0.0000E+000
 771.00,0.0000E+000
 771.50,0.0000E+000
 772.00,0.0000E+000
 772.50,0.0000E+000
 773.00,0.0000E+000
 773.50,0.0000E+000
 774.00,0.0000E+000
 774.50,0.0000E+000
 775.00,0.0000E+000
 775.50,0.0000E+000
 776.00,0.0000E+000
 776.50,0.0000E+000
 777.00,0.0000E+000
 777.50,0.0000E+000
 778.00,0.0000E+000
 778.50,5.8990E-005
 779.00,2.9318E-005
 779.50,0.0000E+000
 780.00,0.0000E+000
 780.50,0.0000E+000
 781.00,0.0000E+000
 781.50,0.0000E+000
 782.00,0.0000E+000
 782.50,0.0000E+000
 783.00,0.0000E+000
 783.50,0.0000E+000
 784.00,0.0000E+000
 784.50,0.0000E+000
 785.00,0.0000E+000
 785.50,0.0000E+000
 786.00,0.0000E+000
 786.50,0.0000E+000
 787.00,0.0000E+000
 787.50,0.0000E+000
 788.00,0.0000E+000
 788.50,0.0000E+000
 789.00,0.0000E+000
 789.50,0.0000E+000
 790.00,0.0000E+000
 790.50,0.0000E+000
 791.00,0.0000E+000
 791.50,0.0000E+000
 792.00,0.0000E+000
 792.50,0.0000E+000
 793.00,0.0000E+000
 793.50,0.0000E+000
 794.00,0.0000E+000
 794.50,0.0000E+000
 795.00,0.0000E+000
 795.50,0.0000E+000
 796.00,0.0000E+000
 796.50,0.0000E+000
 797.00,0.0000E+000
 797.50,0.0000E+000
 798.00,0.0000E+000
 798.50,0.0000E+000
 799.00,0.0000E+000
 799.50,0.0000E+000
 800.00,0.0000E+000
 800.50,0.0000E+000
 801.00,0.0000E+000
 801.50,0.0000E+000
 802.00,0.0000E+000
 802.50,0.0000E+000
 803.00,0.0000E+000
 803.50,0.0000E+000
 804.00,0.0000E+000
 804.50,0.0000E+000
 805.00,0.0000E+000
 805.50,0.0000E+000
 806.00,0.0000E+000
 806.50,0.0000E+000
 807.00,0.0000E+000
 807.50,0.0000E+000
 808.00,0.0000E+000
 808.50,0.0000E+000
 809.00,0.0000E+000
 809.50,0.0000E+000
 810.00,0.0000E+000
 810.50,0.0000E+000
 811.00,0.0000E+000
 811.50,0.0000E+000
 812.00,0.0000E+000
 812.50,0.0000E+000
 813.00,0.0000E+000
 813.50,0.0000E+000
 814.00,0.0000E+000
 814.50,0.0000E+000
 815.00,0.0000E+000
 815.50,0.0000E+000
 816.00,0.0000E+000
 816.50,0.0000E+000
 817.00,0.0000E+000
 817.50,0.0000E+000
 818.00,0.0000E+000
 818.50,0.0000E+000
 819.00,0.0000E+000
 819.50,0.0000E+000
 820.00,0.0000E+000
 820.50,0.0000E+000
 821.00,0.0000E+000
 821.50,0.0000E+000
 822.00,0.0000E+000
 822.50,0.0000E+000
 823.00,0.0000E+000
 823.50,0.0000E+000
 824.00,0.0000E+000
 824.50,0.0000E+000
 825.00,0.0000E+000
 825.50,0.0000E+000
 826.00,0.0000E+000
 826.50,0.0000E+000
 827.00,0.0000E+000
 827.50,0.0000E+000
 828.00,0.0000E+000
 828.50,0.0000E+000
 829.00,0.0000E+000
 829.50,0.0000E+000
 830.00,0.0000E+000
 830.50,0.0000E+000
 831.00,0.0000E+000
 831.50,0.0000E+000
 832.00,0.0000E+000
 832.50,0.0000E+000
 833.00,0.0000E+000
 833.50,0.0000E+000
 834.00,0.0000E+000
 834.50,0.0000E+000
 835.00,0.0000E+000
 835.50,0.0000E+000
 836.00,0.0000E+000
 836.50,0.0000E+000
 837.00,0.0000E+000
 837.50,0.0000E+000
 838.00,0.0000E+000
 838.50,0.0000E+000
 839.00,0.0000E+000
 839.50,0.0000E+000
 840.00,0.0000E+000
 840.50,0.0000E+000
 841.00,0.0000E+000
 841.50,0.0000E+000
 842.00,0.0000E+000
 842.50,0.0000E+000
 843.00,0.0000E+000
 843.50,0.0000E+000
 844.00,0.0000E+000
 844.50,0.0000E+000
 845.00,0.0000E+000
 845.50,0.0000E+000
 846.00,0.0000E+000
 846.50,0.0000E+000
 847.00,0.0000E+000
 847.50,0.0000E+000
 848.00,0.0000E+000
 848.50,0.0000E+000
 849.00,0.0000E+000
 849.50,0.0000E+000
 850.00,0.0000E+000
 850.50,0.0000E+000
 851.00,0.0000E+000
 851.50,0.0000E+000
 852.00,0.0000E+000
 852.50,0.0000E+000
 853.00,0.0000E+000
 853.50,0.0000E+000
 854.00,0.0000E+000
 854.50,0.0000E+000
 855.00,0.0000E+000
 855.50,0.0000E+000
 856.00,0.0000E+000
 856.50,0.0000E+000
 857.00,0.0000E+000
 857.50,0.0000E+000
 858.00,0.0000E+000
 858.50,0.0000E+000
 859.00,0.0000E+000
 859.50,0.0000E+000
 860.00,0.0000E+000
 860.50,0.0000E+000
 861.00,0.0000E+000
 861.50,0.0000E+000
 862.00,0.0000E+000
 862.50,0.0000E+000
 863.00,0.0000E+000
 863.50,0.0000E+000
 864.00,0.0000E+000
 864.50,0.0000E+000
 865.00,0.0000E+000
 865.50,0.0000E+000
 866.00,0.0000E+000
 866.50,0.0000E+000
 867.00,0.0000E+000
 867.50,0.0000E+000
 868.00,0.0000E+000
 868.50,0.0000E+000
 869.00,0.0000E+000
 869.50,0.0000E+000
 870.00,0.0000E+000
 870.50,0.0000E+000
 871.00,0.0000E+000
 871.50,0.0000E+000
 872.00,0.0000E+000
 872.50,0.0000E+000
 873.00,0.0000E+000
 873.50,0.0000E+000
 874.00,0.0000E+000
 874.50,0.0000E+000
 875.00,0.0000E+000
 875.50,0.0000E+000
 876.00,0.0000E+000
 876.50,0.0000E+000
 877.00,0.0000E+000
 877.50,0.0000E+000
 878.00,0.0000E+000
 878.50,0.0000E+000
 879.00,0.0000E+000
 879.50,0.0000E+000
 880.00,0.0000E+000
 880.50,0.0000E+000
 881.00,0.0000E+000
 881.50,0.0000E+000
 882.00,0.0000E+000
 882.50,0.0000E+000
 883.00,0.0000E+000
 883.50,0.0000E+000
 884.00,0.0000E+000
 884.50,0.0000E+000
 885.00,0.0000E+000
 885.50,0.0000E+000
 886.00,0.0000E+000
 886.50,0.0000E+000
 887.00,0.0000E+000
 887.50,0.0000E+000
 888.00,0.0000E+000
 888.50,0.0000E+000
 889.00,0.0000E+000
 889.50,0.0000E+000
 890.00,0.0000E+000
 890.50,0.0000E+000
 891.00,0.0000E+000
 891.50,0.0000E+000
 892.00,0.0000E+000
 892.50,0.0000E+000
 893.00,0.0000E+000
 893.50,0.0000E+000
 894.00,0.0000E+000
 894.50,0.0000E+000
 895.00,0.0000E+000
 895.50,0.0000E+000
 896.00,0.0000E+000
 896.50,0.0000E+000
 897.00,0.0000E+000
 897.50,0.0000E+000
 898.00,0.0000E+000
 898.50,0.0000E+000
 899.00,0.0000E+000
 899.50,0.0000E+000

