wavelength,intensity
 273.00,0.0000E+000
 273.50,0.0000E+000
 274.00,0.0000E+000
 274.50,0.0000E+000
 275.00,0.0000E+000
 275.50,0.0000E+000
 276.00,0.0000E+000
 276.50,0.0000E+000
 277.00,0.0000E+000
 277.50,0.0000E+000
 278.00,0.0000E+000
 278.50,0.0000E+000
 279.00,0.0000E+000
 279.50,0.0000E+000
 280.00,0.0000E+000
 280.50,0.0000E+000
 281.00,0.0000E+000
 281.50,0.0000E+000
 282.00,0.0000E+000
 282.50,0.0000E+000
 283.00,0.0000E+000
 283.50,0.0000E+000
 284.00,0.0000E+000
 284.50,0.0000E+000
 285.00,0.0000E+000
 285.50,0.0000E+000
 286.00,0.0000E+000
 286.50,0.0000E+000
 287.00,0.0000E+000
 287.50,0.0000E+000
 288.00,0.0000E+000
 288.50,0.0000E+000
 289.00,0.0000E+000
 289.50,0.0000E+000
 290.00,0.0000E+000
 290.50,0.0000E+000
 291.00,0.0000E+000
 291.50,0.0000E+000
 292.00,0.0000E+000
 292.50,0.0000E+000
 293.00,0.0000E+000
 293.50,0.0000E+000
 294.00,0.0000E+000
 294.50,0.0000E+000
 295.00,0.0000E+000
 295.50,0.0000E+000
 296.00,0.0000E+000
 296.50,0.0000E+000
 297.00,0.0000E+000
 297.50,0.0000E+000
 298.00,0.0000E+000
 298.50,0.0000E+000
 299.00,0.0000E+000
 299.50,0.0000E+000
 300.00,0.0000E+000
 300.50,0.0000E+000
 301.00,0.0000E+000
 301.50,0.0000E+000
 302.00,0.0000E+000
 302.50,0.0000E+000
 303.00,0.0000E+000
 303.50,0.0000E+000
 304.00,0.0000E+000
 304.50,0.0000E+000
 305.00,0.0000E+000
 305.50,0.0000E+000
 306.00,0.0000E+000
 306.50,0.0000E+000
 307.00,0.0000E+000
 307.50,0.0000E+000
 308.00,0.0000E+000
 308.50,0.0000E+000
 309.00,0.0000E+000
 309.50,0.0000E+000
 310.00,0.0000E+000
 310.50,0.0000E+000
 311.00,0.0000E+000
 311.50,0.0000E+000
 312.00,0.0000E+000
 312.50,0.0000E+000
 313.00,0.0000E+000
 313.50,0.0000E+000
 314.00,0.0000E+000
 314.50,0.0000E+000
 315.00,0.0000E+000
 315.50,0.0000E+000
 316.00,0.0000E+000
 316.50,0.0000E+000
 317.00,0.0000E+000
 317.50,0.0000E+000
 318.00,0.0000E+000
 318.50,0.0000E+000
 319.00,0.0000E+000
 319.50,0.0000E+000
 320.00,0.0000E+000
 320.50,0.0000E+000
 321.00,0.0000E+000
 321.50,0.0000E+000
 322.00,0.0000E+000
 322.50,0.0000E+000
 323.00,0.0000E+000
 323.50,0.0000E+000
 324.00,0.0000E+000
 324.50,0.0000E+000
 325.00,0.0000E+000
 325.50,0.0000E+000
 326.00,0.0000E+000
 326.50,0.0000E+000
 327.00,0.0000E+000
 327.50,0.0000E+000
 328.00,0.0000E+000
 328.50,0.0000E+000
 329.00,0.0000E+000
 329.50,0.0000E+000
 330.00,0.0000E+000
 330.50,0.0000E+000
 331.00,0.0000E+000
 331.50,0.0000E+000
 332.00,0.0000E+000
 332.50,0.0000E+000
 333.00,0.0000E+000
 333.50,0.0000E+000
 334.00,0.0000E+000
 334.50,0.0000E+000
 335.00,0.0000E+000
 335.50,0.0000E+000
 336.00,0.0000E+000
 336.50,0.0000E+000
 337.00,0.0000E+000
 337.50,0.0000E+000
 338.00,0.0000E+000
 338.50,0.0000E+000
 339.00,0.0000E+000
 339.50,0.0000E+000
 340.00,0.0000E+000
 340.50,0.0000E+000
 341.00,0.0000E+000
 341.50,0.0000E+000
 342.00,0.0000E+000
 342.50,0.0000E+000
 343.00,1.2974E-005
 343.50,2.2907E-005
 344.00,7.0989E-006
 344.50,0.0000E+000
 345.00,0.0000E+000
 345.50,0.0000E+000
 346.00,0.0000E+000
 346.50,0.0000E+000
 347.00,0.0000E+000
 347.50,0.0000E+000
 348.00,0.0000E+000
 348.50,0.0000E+000
 349.00,0.0000E+000
 349.50,0.0000E+000
 350.00,0.0000E+000
 350.50,0.0000E+000
 351.00,0.0000E+000
 351.50,0.0000E+000
 352.00,0.0000E+000
 352.50,0.0000E+000
 353.00,0.0000E+000
 353.50,0.0000E+000
 354.00,0.0000E+000
 354.50,0.0000E+000
 355.00,0.0000E+000
 355.50,0.0000E+000
 356.00,0.0000E+000
 356.50,0.0000E+000
 357.00,3.3872E-008
 357.50,8.1826E-006
 358.00,3.8531E-006
 358.50,0.0000E+000
 359.00,0.0000E+000
 359.50,0.0000E+000
 360.00,0.0000E+000
 360.50,0.0000E+000
 361.00,0.0000E+000
 361.50,0.0000E+000
 362.00,0.0000E+000
 362.50,0.0000E+000
 363.00,0.0000E+000
 363.50,0.0000E+000
 364.00,0.0000E+000
 364.50,0.0000E+000
 365.00,1.2245E-005
 365.50,8.2004E-005
 366.00,3.5709E-005
 366.50,0.0000E+000
 367.00,0.0000E+000
 367.50,0.0000E+000
 368.00,0.0000E+000
 368.50,0.0000E+000
 369.00,0.0000E+000
 369.50,2.4208E-005
 370.00,3.9809E-005
 370.50,1.8374E-005
 371.00,1.3593E-006
 371.50,0.0000E+000
 372.00,0.0000E+000
 372.50,0.0000E+000
 373.00,0.0000E+000
 373.50,0.0000E+000
 374.00,0.0000E+000
 374.50,0.0000E+000
 375.00,0.0000E+000
 375.50,5.7747E-008
 376.00,1.0991E-006
 376.50,3.6003E-005
 377.00,7.5413E-005
 377.50,6.8959E-005
 378.00,5.9129E-005
 378.50,0.0000E+000
 379.00,0.0000E+000
 379.50,0.0000E+000
 380.00,0.0000E+000
 380.50,6.7634E-006
 381.00,3.5204E-005
 381.50,4.1605E-005
 382.00,3.3458E-005
 382.50,3.0895E-005
 383.00,0.0000E+000
 383.50,0.0000E+000
 384.00,0.0000E+000
 384.50,3.4935E-006
 385.00,6.2730E-005
 385.50,6.1858E-005
 386.00,6.8259E-005
 386.50,6.3406E-005
 387.00,8.1442E-006
 387.50,0.0000E+000
 388.00,0.0000E+000
 388.50,1.1348E-005
 389.00,3.6333E-005
 389.50,8.1503E-005
 390.00,7.2398E-005
 390.50,8.9350E-005
 391.00,9.3150E-005
 391.50,1.0244E-004
 392.00,1.1796E-004
 392.50,8.1968E-005
 393.00,2.8481E-005
 393.50,0.0000E+000
 394.00,0.0000E+000
 394.50,0.0000E+000
 395.00,0.0000E+000
 395.50,0.0000E+000
 396.00,2.7396E-006
 396.50,3.5048E-005
 397.00,5.4119E-005
 397.50,5.0891E-005
 398.00,1.0087E-004
 398.50,1.0457E-004
 399.00,1.2243E-004
 399.50,9.8979E-005
 400.00,4.3352E-005
 400.50,1.0633E-005
 401.00,1.0456E-005
 401.50,0.0000E+000
 402.00,2.5758E-005
 402.50,8.0656E-005
 403.00,9.6408E-005
 403.50,1.1363E-004
 404.00,1.2866E-004
 404.50,1.7356E-004
 405.00,2.1007E-004
 405.50,2.3303E-004
 406.00,1.9643E-004
 406.50,1.2636E-004
 407.00,9.6850E-005
 407.50,6.2201E-005
 408.00,2.0110E-005
 408.50,7.6508E-006
 409.00,1.0761E-005
 409.50,7.7956E-005
 410.00,1.3579E-004
 410.50,1.5373E-004
 411.00,1.4123E-004
 411.50,1.1792E-004
 412.00,5.9264E-005
 412.50,5.5781E-005
 413.00,5.6404E-005
 413.50,1.0955E-004
 414.00,1.8946E-004
 414.50,1.9318E-004
 415.00,2.0074E-004
 415.50,2.0161E-004
 416.00,2.2430E-004
 416.50,2.7780E-004
 417.00,3.0974E-004
 417.50,2.7687E-004
 418.00,2.2579E-004
 418.50,1.6535E-004
 419.00,1.2848E-004
 419.50,1.6948E-004
 420.00,1.8528E-004
 420.50,1.7450E-004
 421.00,1.2763E-004
 421.50,7.4800E-005
 422.00,8.1175E-005
 422.50,1.3824E-004
 423.00,2.1468E-004
 423.50,2.5142E-004
 424.00,2.6133E-004
 424.50,2.1883E-004
 425.00,2.2997E-004
 425.50,2.7230E-004
 426.00,3.0734E-004
 426.50,3.1994E-004
 427.00,2.9253E-004
 427.50,2.6371E-004
 428.00,2.6275E-004
 428.50,2.4387E-004
 429.00,2.4532E-004
 429.50,2.1955E-004
 430.00,1.5411E-004
 430.50,1.4019E-004
 431.00,1.4107E-004
 431.50,2.0218E-004
 432.00,2.4598E-004
 432.50,2.8995E-004
 433.00,3.0267E-004
 433.50,3.2225E-004
 434.00,3.5112E-004
 434.50,3.6514E-004
 435.00,3.8873E-004
 435.50,3.8920E-004
 436.00,3.2663E-004
 436.50,3.3565E-004
 437.00,3.1594E-004
 437.50,3.3310E-004
 438.00,3.6765E-004
 438.50,3.7616E-004
 439.00,4.1061E-004
 439.50,4.5423E-004
 440.00,4.8571E-004
 440.50,4.8039E-004
 441.00,4.8321E-004
 441.50,4.4171E-004
 442.00,3.9124E-004
 442.50,3.7001E-004
 443.00,3.5376E-004
 443.50,3.7759E-004
 444.00,3.9258E-004
 444.50,4.0016E-004
 445.00,3.8882E-004
 445.50,3.7410E-004
 446.00,3.9416E-004
 446.50,4.1128E-004
 447.00,4.4019E-004
 447.50,4.6665E-004
 448.00,4.8966E-004
 448.50,5.0092E-004
 449.00,5.2445E-004
 449.50,5.7086E-004
 450.00,6.0336E-004
 450.50,6.5713E-004
 451.00,6.4089E-004
 451.50,6.0750E-004
 452.00,5.4821E-004
 452.50,4.9659E-004
 453.00,4.8637E-004
 453.50,5.0056E-004
 454.00,5.2172E-004
 454.50,5.5676E-004
 455.00,5.2505E-004
 455.50,5.3132E-004
 456.00,5.3701E-004
 456.50,6.1153E-004
 457.00,6.7423E-004
 457.50,7.3288E-004
 458.00,7.8251E-004
 458.50,7.9843E-004
 459.00,7.5621E-004
 459.50,7.0512E-004
 460.00,6.5001E-004
 460.50,6.6689E-004
 461.00,7.4909E-004
 461.50,7.8191E-004
 462.00,7.8518E-004
 462.50,7.7186E-004
 463.00,7.6147E-004
 463.50,7.7645E-004
 464.00,8.0786E-004
 464.50,7.9839E-004
 465.00,7.6639E-004
 465.50,7.7882E-004
 466.00,7.8637E-004
 466.50,8.6916E-004
 467.00,8.7913E-004
 467.50,8.3820E-004
 468.00,8.1824E-004
 468.50,8.1966E-004
 469.00,8.3941E-004
 469.50,8.2043E-004
 470.00,7.7608E-004
 470.50,7.5920E-004
 471.00,7.8111E-004
 471.50,8.3694E-004
 472.00,8.7449E-004
 472.50,9.3350E-004
 473.00,9.9174E-004
 473.50,1.0057E-003
 474.00,9.8774E-004
 474.50,9.7044E-004
 475.00,9.5441E-004
 475.50,9.7551E-004
 476.00,9.8144E-004
 476.50,9.7493E-004
 477.00,9.7899E-004
 477.50,9.6575E-004
 478.00,9.7245E-004
 478.50,1.0114E-003
 479.00,1.0543E-003
 479.50,1.1065E-003
 480.00,1.1173E-003
 480.50,1.0988E-003
 481.00,1.0966E-003
 481.50,1.0935E-003
 482.00,1.1031E-003
 482.50,1.1155E-003
 483.00,1.0877E-003
 483.50,1.0807E-003
 484.00,1.0521E-003
 484.50,1.0632E-003
 485.00,1.0870E-003
 485.50,1.1308E-003
 486.00,1.2019E-003
 486.50,1.2501E-003
 487.00,1.2682E-003
 487.50,1.2580E-003
 488.00,1.2394E-003
 488.50,1.2300E-003
 489.00,1.2496E-003
 489.50,1.2826E-003
 490.00,1.3187E-003
 490.50,1.3518E-003
 491.00,1.3693E-003
 491.50,1.3547E-003
 492.00,1.3529E-003
 492.50,1.3288E-003
 493.00,1.3242E-003
 493.50,1.3359E-003
 494.00,1.3538E-003
 494.50,1.3858E-003
 495.00,1.4201E-003
 495.50,1.4354E-003
 496.00,1.4527E-003
 496.50,1.4488E-003
 497.00,1.4535E-003
 497.50,1.4571E-003
 498.00,1.4506E-003
 498.50,1.4606E-003
 499.00,1.4672E-003
 499.50,1.4946E-003
 500.00,1.5019E-003
 500.50,1.5107E-003
 501.00,1.5173E-003
 501.50,1.5357E-003
 502.00,1.5793E-003
 502.50,1.5729E-003
 503.00,1.5769E-003
 503.50,1.5764E-003
 504.00,1.5995E-003
 504.50,1.6449E-003
 505.00,1.6612E-003
 505.50,1.6816E-003
 506.00,1.6776E-003
 506.50,1.7075E-003
 507.00,1.7356E-003
 507.50,1.7747E-003
 508.00,1.7963E-003
 508.50,1.8188E-003
 509.00,1.8416E-003
 509.50,1.8534E-003
 510.00,1.8495E-003
 510.50,1.8314E-003
 511.00,1.8254E-003
 511.50,1.8482E-003
 512.00,1.8706E-003
 512.50,1.8904E-003
 513.00,1.9047E-003
 513.50,1.9486E-003
 514.00,1.9820E-003
 514.50,2.0247E-003
 515.00,2.0287E-003
 515.50,2.0396E-003
 516.00,2.0645E-003
 516.50,2.1080E-003
 517.00,2.1462E-003
 517.50,2.1611E-003
 518.00,2.1558E-003
 518.50,2.1675E-003
 519.00,2.1858E-003
 519.50,2.1993E-003
 520.00,2.2274E-003
 520.50,2.2376E-003
 521.00,2.2620E-003
 521.50,2.2646E-003
 522.00,2.2714E-003
 522.50,2.2900E-003
 523.00,2.3129E-003
 523.50,2.3261E-003
 524.00,2.3544E-003
 524.50,2.3600E-003
 525.00,2.3755E-003
 525.50,2.3916E-003
 526.00,2.4217E-003
 526.50,2.4628E-003
 527.00,2.4892E-003
 527.50,2.5119E-003
 528.00,2.5327E-003
 528.50,2.5569E-003
 529.00,2.5920E-003
 529.50,2.6295E-003
 530.00,2.6677E-003
 530.50,2.7102E-003
 531.00,2.7309E-003
 531.50,2.7637E-003
 532.00,2.7853E-003
 532.50,2.7863E-003
 533.00,2.7953E-003
 533.50,2.7971E-003
 534.00,2.8166E-003
 534.50,2.8373E-003
 535.00,2.8528E-003
 535.50,2.8880E-003
 536.00,2.9160E-003
 536.50,2.9354E-003
 537.00,2.9438E-003
 537.50,2.9602E-003
 538.00,2.9873E-003
 538.50,3.0094E-003
 539.00,3.0187E-003
 539.50,3.0299E-003
 540.00,3.0483E-003
 540.50,3.0509E-003
 541.00,3.0585E-003
 541.50,3.0806E-003
 542.00,3.1201E-003
 542.50,3.1648E-003
 543.00,3.1910E-003
 543.50,3.2302E-003
 544.00,3.2956E-003
 544.50,3.3578E-003
 545.00,3.4076E-003
 545.50,3.4012E-003
 546.00,3.3958E-003
 546.50,3.4030E-003
 547.00,3.4243E-003
 547.50,3.4318E-003
 548.00,3.4419E-003
 548.50,3.4702E-003
 549.00,3.5165E-003
 549.50,3.5421E-003
 550.00,3.5494E-003
 550.50,3.5585E-003
 551.00,3.5850E-003
 551.50,3.6381E-003
 552.00,3.6808E-003
 552.50,3.6933E-003
 553.00,3.6876E-003
 553.50,3.7095E-003
 554.00,3.7584E-003
 554.50,3.7996E-003
 555.00,3.7917E-003
 555.50,3.7918E-003
 556.00,3.8118E-003
 556.50,3.8746E-003
 557.00,3.9062E-003
 557.50,3.9585E-003
 558.00,3.9970E-003
 558.50,4.0215E-003
 559.00,4.0434E-003
 559.50,4.0424E-003
 560.00,4.0767E-003
 560.50,4.0927E-003
 561.00,4.0978E-003
 561.50,4.1250E-003
 562.00,4.1591E-003
 562.50,4.2058E-003
 563.00,4.2580E-003
 563.50,4.2770E-003
 564.00,4.2910E-003
 564.50,4.2781E-003
 565.00,4.3147E-003
 565.50,4.3694E-003
 566.00,4.4098E-003
 566.50,4.4156E-003
 567.00,4.4187E-003
 567.50,4.4386E-003
 568.00,4.4985E-003
 568.50,4.5615E-003
 569.00,4.5805E-003
 569.50,4.5903E-003
 570.00,4.6148E-003
 570.50,4.6597E-003
 571.00,4.6775E-003
 571.50,4.6769E-003
 572.00,4.6596E-003
 572.50,4.6821E-003
 573.00,4.6808E-003
 573.50,4.6693E-003
 574.00,4.6769E-003
 574.50,4.7364E-003
 575.00,4.8308E-003
 575.50,4.8887E-003
 576.00,4.8878E-003
 576.50,4.8582E-003
 577.00,4.8809E-003
 577.50,4.9528E-003
 578.00,5.0051E-003
 578.50,5.0398E-003
 579.00,5.0304E-003
 579.50,5.0493E-003
 580.00,5.0430E-003
 580.50,5.0613E-003
 581.00,5.0846E-003
 581.50,5.1462E-003
 582.00,5.1845E-003
 582.50,5.2240E-003
 583.00,5.2496E-003
 583.50,5.2690E-003
 584.00,5.2858E-003
 584.50,5.2954E-003
 585.00,5.3187E-003
 585.50,5.3207E-003
 586.00,5.3522E-003
 586.50,5.3085E-003
 587.00,5.2963E-003
 587.50,5.2893E-003
 588.00,5.3380E-003
 588.50,5.3998E-003
 589.00,5.4604E-003
 589.50,5.5785E-003
 590.00,5.6637E-003
 590.50,5.7239E-003
 591.00,5.7633E-003
 591.50,5.7330E-003
 592.00,5.6767E-003
 592.50,5.6174E-003
 593.00,5.6495E-003
 593.50,5.7668E-003
 594.00,5.8805E-003
 594.50,5.9377E-003
 595.00,5.9378E-003
 595.50,5.9134E-003
 596.00,5.8920E-003
 596.50,5.8747E-003
 597.00,5.8976E-003
 597.50,5.9452E-003
 598.00,5.9738E-003
 598.50,5.9792E-003
 599.00,5.9597E-003
 599.50,5.9833E-003
 600.00,6.0367E-003
 600.50,6.0610E-003
 601.00,6.0782E-003
 601.50,6.0817E-003
 602.00,6.1316E-003
 602.50,6.1715E-003
 603.00,6.2059E-003
 603.50,6.2305E-003
 604.00,6.2625E-003
 604.50,6.2902E-003
 605.00,6.3189E-003
 605.50,6.3381E-003
 606.00,6.3418E-003
 606.50,6.3043E-003
 607.00,6.3121E-003
 607.50,6.3724E-003
 608.00,6.4339E-003
 608.50,6.5147E-003
 609.00,6.5411E-003
 609.50,6.5490E-003
 610.00,6.5285E-003
 610.50,6.4441E-003
 611.00,6.4611E-003
 611.50,6.4984E-003
 612.00,6.5853E-003
 612.50,6.6546E-003
 613.00,6.6778E-003
 613.50,6.6820E-003
 614.00,6.6818E-003
 614.50,6.7110E-003
 615.00,6.7512E-003
 615.50,6.8011E-003
 616.00,6.8257E-003
 616.50,6.8586E-003
 617.00,6.8274E-003
 617.50,6.8193E-003
 618.00,6.8444E-003
 618.50,6.8981E-003
 619.00,6.9410E-003
 619.50,6.8910E-003
 620.00,6.8812E-003
 620.50,6.9089E-003
 621.00,7.0273E-003
 621.50,7.1071E-003
 622.00,7.1344E-003
 622.50,7.1280E-003
 623.00,7.0877E-003
 623.50,7.0878E-003
 624.00,7.0861E-003
 624.50,7.1556E-003
 625.00,7.1972E-003
 625.50,7.2295E-003
 626.00,7.2371E-003
 626.50,7.2425E-003
 627.00,7.2723E-003
 627.50,7.3217E-003
 628.00,7.3970E-003
 628.50,7.4630E-003
 629.00,7.4846E-003
 629.50,7.4746E-003
 630.00,7.4395E-003
 630.50,7.4071E-003
 631.00,7.4123E-003
 631.50,7.4180E-003
 632.00,7.4808E-003
 632.50,7.5292E-003
 633.00,7.5733E-003
 633.50,7.6268E-003
 634.00,7.5893E-003
 634.50,7.5724E-003
 635.00,7.5849E-003
 635.50,7.6145E-003
 636.00,7.6510E-003
 636.50,7.6304E-003
 637.00,7.6602E-003
 637.50,7.7376E-003
 638.00,7.7773E-003
 638.50,7.8064E-003
 639.00,7.8102E-003
 639.50,7.8092E-003
 640.00,7.9009E-003
 640.50,7.9919E-003
 641.00,8.0200E-003
 641.50,7.9714E-003
 642.00,7.9182E-003
 642.50,7.9208E-003
 643.00,7.9590E-003
 643.50,7.9761E-003
 644.00,8.0398E-003
 644.50,8.0637E-003
 645.00,8.1349E-003
 645.50,8.1687E-003
 646.00,8.1913E-003
 646.50,8.1827E-003
 647.00,8.1856E-003
 647.50,8.1585E-003
 648.00,8.1109E-003
 648.50,8.1357E-003
 649.00,8.2299E-003
 649.50,8.4437E-003
 650.00,8.5638E-003
 650.50,8.6489E-003
 651.00,8.6358E-003
 651.50,8.6260E-003
 652.00,8.6189E-003
 652.50,8.6061E-003
 653.00,8.5629E-003
 653.50,8.5474E-003
 654.00,8.5780E-003
 654.50,8.6476E-003
 655.00,8.6524E-003
 655.50,8.6444E-003
 656.00,8.6465E-003
 656.50,8.7134E-003
 657.00,8.6931E-003
 657.50,8.7003E-003
 658.00,8.6434E-003
 658.50,8.6764E-003
 659.00,8.6796E-003
 659.50,8.7692E-003
 660.00,8.8272E-003
 660.50,8.8886E-003
 661.00,8.9094E-003
 661.50,8.9025E-003
 662.00,8.8705E-003
 662.50,8.8808E-003
 663.00,8.8694E-003
 663.50,8.8561E-003
 664.00,8.7905E-003
 664.50,8.8546E-003
 665.00,8.8967E-003
 665.50,8.9380E-003
 666.00,8.9639E-003
 666.50,9.0692E-003
 667.00,9.1505E-003
 667.50,9.1416E-003
 668.00,9.1100E-003
 668.50,9.0733E-003
 669.00,9.0161E-003
 669.50,8.9786E-003
 670.00,8.9892E-003
 670.50,9.0959E-003
 671.00,9.1641E-003
 671.50,9.2416E-003
 672.00,9.2374E-003
 672.50,9.2097E-003
 673.00,9.1726E-003
 673.50,9.1995E-003
 674.00,9.2817E-003
 674.50,9.3237E-003
 675.00,9.3613E-003
 675.50,9.3699E-003
 676.00,9.3823E-003
 676.50,9.4315E-003
 677.00,9.5094E-003
 677.50,9.5686E-003
 678.00,9.5786E-003
 678.50,9.5762E-003
 679.00,9.6074E-003
 679.50,9.5617E-003
 680.00,9.5014E-003
 680.50,9.4842E-003
 681.00,9.5119E-003
 681.50,9.5866E-003
 682.00,9.6609E-003
 682.50,9.7306E-003
 683.00,9.7433E-003
 683.50,9.7336E-003
 684.00,9.7212E-003
 684.50,9.7343E-003
 685.00,9.7034E-003
 685.50,9.7611E-003
 686.00,9.8286E-003
 686.50,9.9703E-003
 687.00,1.0027E-002
 687.50,1.0064E-002
 688.00,1.0046E-002
 688.50,9.9831E-003
 689.00,9.9995E-003
 689.50,1.0142E-002
 690.00,1.0323E-002
 690.50,1.0388E-002
 691.00,1.0351E-002
 691.50,1.0313E-002
 692.00,1.0273E-002
 692.50,1.0212E-002
 693.00,1.0173E-002
 693.50,1.0200E-002
 694.00,1.0266E-002
 694.50,1.0359E-002
 695.00,1.0426E-002
 695.50,1.0429E-002
 696.00,1.0431E-002
 696.50,1.0466E-002
 697.00,1.0518E-002
 697.50,1.0492E-002
 698.00,1.0503E-002
 698.50,1.0556E-002
 699.00,1.0643E-002
 699.50,1.0661E-002
 700.00,1.0653E-002
 700.50,1.0663E-002
 701.00,1.0732E-002
 701.50,1.0802E-002
 702.00,1.0835E-002
 702.50,1.0927E-002
 703.00,1.0969E-002
 703.50,1.0936E-002
 704.00,1.0871E-002
 704.50,1.0892E-002
 705.00,1.1021E-002
 705.50,1.1039E-002
 706.00,1.1098E-002
 706.50,1.1092E-002
 707.00,1.1127E-002
 707.50,1.1130E-002
 708.00,1.1141E-002
 708.50,1.1157E-002
 709.00,1.1162E-002
 709.50,1.1161E-002
 710.00,1.1163E-002
 710.50,1.1137E-002
 711.00,1.1145E-002
 711.50,1.1086E-002
 712.00,1.1085E-002
 712.50,1.1174E-002
 713.00,1.1284E-002
 713.50,1.1378E-002
 714.00,1.1291E-002
 714.50,1.1281E-002
 715.00,1.1255E-002
 715.50,1.1357E-002
 716.00,1.1415E-002
 716.50,1.1503E-002
 717.00,1.1561E-002
 717.50,1.1563E-002
 718.00,1.1526E-002
 718.50,1.1496E-002
 719.00,1.1498E-002
 719.50,1.1585E-002
 720.00,1.1643E-002
 720.50,1.1764E-002
 721.00,1.1878E-002
 721.50,1.1884E-002
 722.00,1.1795E-002
 722.50,1.1726E-002
 723.00,1.1791E-002
 723.50,1.1863E-002
 724.00,1.1924E-002
 724.50,1.1972E-002
 725.00,1.1997E-002
 725.50,1.1959E-002
 726.00,1.1987E-002
 726.50,1.2010E-002
 727.00,1.2103E-002
 727.50,1.2138E-002
 728.00,1.2259E-002
 728.50,1.2454E-002
 729.00,1.2551E-002
 729.50,1.2524E-002
 730.00,1.2529E-002
 730.50,1.2545E-002
 731.00,1.2558E-002
 731.50,1.2397E-002
 732.00,1.2367E-002
 732.50,1.2473E-002
 733.00,1.2594E-002
 733.50,1.2603E-002
 734.00,1.2497E-002
 734.50,1.2437E-002
 735.00,1.2425E-002
 735.50,1.2465E-002
 736.00,1.2648E-002
 736.50,1.2810E-002
 737.00,1.2857E-002
 737.50,1.2744E-002
 738.00,1.2765E-002
 738.50,1.2848E-002
 739.00,1.2987E-002
 739.50,1.2973E-002
 740.00,1.2957E-002
 740.50,1.2960E-002
 741.00,1.3060E-002
 741.50,1.3122E-002
 742.00,1.3105E-002
 742.50,1.3127E-002
 743.00,1.3127E-002
 743.50,1.3241E-002
 744.00,1.3291E-002
 744.50,1.3310E-002
 745.00,1.3168E-002
 745.50,1.3196E-002
 746.00,1.3404E-002
 746.50,1.3491E-002
 747.00,1.3409E-002
 747.50,1.3348E-002
 748.00,1.3456E-002
 748.50,1.3548E-002
 749.00,1.3620E-002
 749.50,1.3674E-002
 750.00,1.3629E-002
 750.50,1.3454E-002
 751.00,1.3433E-002
 751.50,1.3522E-002
 752.00,1.3420E-002
 752.50,1.3284E-002
 753.00,1.3484E-002
 753.50,1.3653E-002
 754.00,1.3617E-002
 754.50,1.3454E-002
 755.00,1.3609E-002
 755.50,1.3828E-002
 756.00,1.4006E-002
 756.50,1.4000E-002
 757.00,1.3839E-002
 757.50,1.3805E-002
 758.00,1.3947E-002
 758.50,1.4177E-002
 759.00,1.4192E-002
 759.50,1.3952E-002
 760.00,1.3893E-002
 760.50,1.3973E-002
 761.00,1.4130E-002
 761.50,1.4187E-002
 762.00,1.4239E-002
 762.50,1.4432E-002
 763.00,1.4481E-002
 763.50,1.4536E-002
 764.00,1.4404E-002
 764.50,1.4389E-002
 765.00,1.4412E-002
 765.50,1.4452E-002
 766.00,1.4474E-002
 766.50,1.4453E-002
 767.00,1.4553E-002
 767.50,1.4703E-002
 768.00,1.4764E-002
 768.50,1.4595E-002
 769.00,1.4398E-002
 769.50,1.4432E-002
 770.00,1.4666E-002
 770.50,1.4792E-002
 771.00,1.4664E-002
 771.50,1.4551E-002
 772.00,1.4613E-002
 772.50,1.4531E-002
 773.00,1.4576E-002
 773.50,1.4590E-002
 774.00,1.4683E-002
 774.50,1.4622E-002
 775.00,1.4523E-002
 775.50,1.4545E-002
 776.00,1.4665E-002
 776.50,1.4842E-002
 777.00,1.4867E-002
 777.50,1.4969E-002
 778.00,1.5067E-002
 778.50,1.5112E-002
 779.00,1.4903E-002
 779.50,1.4833E-002
 780.00,1.4828E-002
 780.50,1.4949E-002
 781.00,1.5158E-002
 781.50,1.5359E-002
 782.00,1.5477E-002
 782.50,1.5498E-002
 783.00,1.5457E-002
 783.50,1.5303E-002
 784.00,1.5151E-002
 784.50,1.5069E-002
 785.00,1.5144E-002
 785.50,1.5251E-002
 786.00,1.5350E-002
 786.50,1.5280E-002
 787.00,1.5122E-002
 787.50,1.4998E-002
 788.00,1.5036E-002
 788.50,1.5300E-002
 789.00,1.5717E-002
 789.50,1.5835E-002
 790.00,1.5897E-002
 790.50,1.5683E-002
 791.00,1.5684E-002
 791.50,1.5636E-002
 792.00,1.5847E-002
 792.50,1.5858E-002
 793.00,1.5838E-002
 793.50,1.5831E-002
 794.00,1.5862E-002
 794.50,1.5837E-002
 795.00,1.5824E-002
 795.50,1.5758E-002
 796.00,1.5602E-002
 796.50,1.5494E-002
 797.00,1.5520E-002
 797.50,1.5763E-002
 798.00,1.5803E-002
 798.50,1.5687E-002
 799.00,1.5763E-002
 799.50,1.6018E-002
 800.00,1.6027E-002
 800.50,1.6058E-002
 801.00,1.5895E-002
 801.50,1.6031E-002
 802.00,1.6334E-002
 802.50,1.6527E-002
 803.00,1.6507E-002
 803.50,1.6411E-002
 804.00,1.6439E-002
 804.50,1.6235E-002
 805.00,1.6130E-002
 805.50,1.6022E-002
 806.00,1.6121E-002
 806.50,1.6218E-002
 807.00,1.6077E-002
 807.50,1.6268E-002
 808.00,1.6526E-002
 808.50,1.6880E-002
 809.00,1.6825E-002
 809.50,1.6857E-002
 810.00,1.6854E-002
 810.50,1.6908E-002
 811.00,1.6481E-002
 811.50,1.6287E-002
 812.00,1.6431E-002
 812.50,1.6475E-002
 813.00,1.6531E-002
 813.50,1.6910E-002
 814.00,1.7217E-002
 814.50,1.7351E-002
 815.00,1.7351E-002
 815.50,1.7241E-002
 816.00,1.7063E-002
 816.50,1.7060E-002
 817.00,1.7232E-002
 817.50,1.7386E-002
 818.00,1.7284E-002
 818.50,1.6924E-002
 819.00,1.6525E-002
 819.50,1.6707E-002
 820.00,1.7445E-002
 820.50,1.7535E-002
 821.00,1.7749E-002
 821.50,1.7532E-002
 822.00,1.7477E-002
 822.50,1.7644E-002
 823.00,1.7838E-002
 823.50,1.7688E-002
 824.00,1.7495E-002
 824.50,1.7236E-002
 825.00,1.7436E-002
 825.50,1.7526E-002
 826.00,1.7333E-002
 826.50,1.7279E-002
 827.00,1.7472E-002
 827.50,1.7614E-002
 828.00,1.7697E-002
 828.50,1.7868E-002
 829.00,1.7782E-002
 829.50,1.7282E-002
 830.00,1.6979E-002
 830.50,1.7262E-002
 831.00,1.7487E-002
 831.50,1.7882E-002
 832.00,1.8091E-002
 832.50,1.8185E-002
 833.00,1.8505E-002
 833.50,1.8488E-002
 834.00,1.8587E-002
 834.50,1.8801E-002
 835.00,1.8738E-002
 835.50,1.8353E-002
 836.00,1.8132E-002
 836.50,1.8112E-002
 837.00,1.7952E-002
 837.50,1.8075E-002
 838.00,1.8494E-002
 838.50,1.8656E-002
 839.00,1.8115E-002
 839.50,1.7899E-002
 840.00,1.7845E-002
 840.50,1.7933E-002
 841.00,1.7945E-002
 841.50,1.7870E-002
 842.00,1.7952E-002
 842.50,1.8150E-002
 843.00,1.7907E-002
 843.50,1.7821E-002
 844.00,1.8040E-002
 844.50,1.8356E-002
 845.00,1.8575E-002
 845.50,1.8605E-002
 846.00,1.8411E-002
 846.50,1.8134E-002
 847.00,1.8055E-002
 847.50,1.8139E-002
 848.00,1.8704E-002
 848.50,1.8812E-002
 849.00,1.8641E-002
 849.50,1.8757E-002
 850.00,1.9057E-002
 850.50,1.9040E-002
 851.00,1.8878E-002
 851.50,1.8433E-002
 852.00,1.8061E-002
 852.50,1.7821E-002
 853.00,1.7822E-002
 853.50,1.8120E-002
 854.00,1.8151E-002
 854.50,1.8444E-002
 855.00,1.8722E-002
 855.50,1.8831E-002
 856.00,1.9248E-002
 856.50,1.9136E-002
 857.00,1.8573E-002
 857.50,1.8011E-002
 858.00,1.8797E-002
 858.50,1.9825E-002
 859.00,1.9849E-002
 859.50,1.9407E-002
 860.00,1.9122E-002
 860.50,1.9090E-002
 861.00,1.9122E-002
 861.50,1.9844E-002
 862.00,2.0035E-002
 862.50,1.9529E-002
 863.00,1.9420E-002
 863.50,1.9678E-002
 864.00,1.9412E-002
 864.50,1.8677E-002
 865.00,1.8302E-002
 865.50,1.8490E-002
 866.00,1.9418E-002
 866.50,2.0154E-002
 867.00,2.0397E-002
 867.50,2.0346E-002
 868.00,2.0096E-002
 868.50,1.9432E-002
 869.00,1.9422E-002
 869.50,1.9732E-002
 870.00,1.9830E-002
 870.50,1.9364E-002
 871.00,1.9170E-002
 871.50,2.0153E-002
 872.00,2.0698E-002
 872.50,1.9492E-002
 873.00,1.8461E-002
 873.50,1.8435E-002
 874.00,1.8141E-002
 874.50,1.8361E-002
 875.00,1.9160E-002
 875.50,1.9972E-002
 876.00,2.0160E-002
 876.50,1.9795E-002
 877.00,1.9384E-002
 877.50,1.9282E-002
 878.00,1.9861E-002
 878.50,2.0378E-002
 879.00,2.0264E-002
 879.50,2.0069E-002
 880.00,1.9598E-002
 880.50,2.0375E-002
 881.00,2.1070E-002
 881.50,2.0988E-002
 882.00,1.9799E-002
 882.50,1.8979E-002
 883.00,1.9304E-002
 883.50,1.9690E-002
 884.00,2.0055E-002
 884.50,2.0053E-002
 885.00,2.0275E-002
 885.50,1.9942E-002
 886.00,1.9523E-002
 886.50,2.0128E-002
 887.00,2.0276E-002
 887.50,2.0039E-002
 888.00,2.0427E-002
 888.50,2.1210E-002
 889.00,2.1308E-002
 889.50,2.0475E-002
 890.00,2.0144E-002
 890.50,1.9939E-002
 891.00,1.9681E-002
 891.50,1.9130E-002
 892.00,1.9817E-002
 892.50,2.1115E-002
 893.00,2.0987E-002
 893.50,1.9379E-002
 894.00,1.8971E-002
 894.50,2.0290E-002
 895.00,2.0996E-002
 895.50,2.0244E-002
 896.00,1.9762E-002
 896.50,1.9937E-002
 897.00,1.9043E-002
 897.50,2.0134E-002
 898.00,2.1222E-002
 898.50,2.0370E-002
 899.00,1.9583E-002
 899.50,3.8579E-004

