wavelength,intensity
 273.00,0.0000E+000
 273.50,0.0000E+000
 274.00,0.0000E+000
 274.50,0.0000E+000
 275.00,0.0000E+000
 275.50,0.0000E+000
 276.00,0.0000E+000
 276.50,0.0000E+000
 277.00,0.0000E+000
 277.50,0.0000E+000
 278.00,0.0000E+000
 278.50,0.0000E+000
 279.00,0.0000E+000
 279.50,0.0000E+000
 280.00,0.0000E+000
 280.50,0.0000E+000
 281.00,0.0000E+000
 281.50,0.0000E+000
 282.00,0.0000E+000
 282.50,0.0000E+000
 283.00,0.0000E+000
 283.50,0.0000E+000
 284.00,0.0000E+000
 284.50,0.0000E+000
 285.00,0.0000E+000
 285.50,0.0000E+000
 286.00,0.0000E+000
 286.50,0.0000E+000
 287.00,0.0000E+000
 287.50,0.0000E+000
 288.00,0.0000E+000
 288.50,0.0000E+000
 289.00,0.0000E+000
 289.50,0.0000E+000
 290.00,0.0000E+000
 290.50,0.0000E+000
 291.00,0.0000E+000
 291.50,0.0000E+000
 292.00,0.0000E+000
 292.50,0.0000E+000
 293.00,0.0000E+000
 293.50,0.0000E+000
 294.00,0.0000E+000
 294.50,0.0000E+000
 295.00,0.0000E+000
 295.50,0.0000E+000
 296.00,0.0000E+000
 296.50,0.0000E+000
 297.00,0.0000E+000
 297.50,0.0000E+000
 298.00,0.0000E+000
 298.50,0.0000E+000
 299.00,0.0000E+000
 299.50,0.0000E+000
 300.00,0.0000E+000
 300.50,0.0000E+000
 301.00,0.0000E+000
 301.50,0.0000E+000
 302.00,0.0000E+000
 302.50,0.0000E+000
 303.00,0.0000E+000
 303.50,0.0000E+000
 304.00,0.0000E+000
 304.50,0.0000E+000
 305.00,0.0000E+000
 305.50,0.0000E+000
 306.00,0.0000E+000
 306.50,0.0000E+000
 307.00,0.0000E+000
 307.50,0.0000E+000
 308.00,0.0000E+000
 308.50,0.0000E+000
 309.00,0.0000E+000
 309.50,0.0000E+000
 310.00,0.0000E+000
 310.50,0.0000E+000
 311.00,0.0000E+000
 311.50,0.0000E+000
 312.00,0.0000E+000
 312.50,0.0000E+000
 313.00,0.0000E+000
 313.50,0.0000E+000
 314.00,0.0000E+000
 314.50,0.0000E+000
 315.00,0.0000E+000
 315.50,0.0000E+000
 316.00,0.0000E+000
 316.50,0.0000E+000
 317.00,0.0000E+000
 317.50,0.0000E+000
 318.00,0.0000E+000
 318.50,0.0000E+000
 319.00,0.0000E+000
 319.50,0.0000E+000
 320.00,0.0000E+000
 320.50,0.0000E+000
 321.00,0.0000E+000
 321.50,0.0000E+000
 322.00,0.0000E+000
 322.50,0.0000E+000
 323.00,0.0000E+000
 323.50,0.0000E+000
 324.00,0.0000E+000
 324.50,0.0000E+000
 325.00,0.0000E+000
 325.50,0.0000E+000
 326.00,0.0000E+000
 326.50,0.0000E+000
 327.00,0.0000E+000
 327.50,0.0000E+000
 328.00,0.0000E+000
 328.50,0.0000E+000
 329.00,0.0000E+000
 329.50,0.0000E+000
 330.00,0.0000E+000
 330.50,0.0000E+000
 331.00,0.0000E+000
 331.50,0.0000E+000
 332.00,0.0000E+000
 332.50,0.0000E+000
 333.00,0.0000E+000
 333.50,0.0000E+000
 334.00,0.0000E+000
 334.50,0.0000E+000
 335.00,0.0000E+000
 335.50,0.0000E+000
 336.00,0.0000E+000
 336.50,0.0000E+000
 337.00,0.0000E+000
 337.50,0.0000E+000
 338.00,0.0000E+000
 338.50,0.0000E+000
 339.00,0.0000E+000
 339.50,0.0000E+000
 340.00,0.0000E+000
 340.50,0.0000E+000
 341.00,0.0000E+000
 341.50,0.0000E+000
 342.00,0.0000E+000
 342.50,0.0000E+000
 343.00,0.0000E+000
 343.50,0.0000E+000
 344.00,0.0000E+000
 344.50,0.0000E+000
 345.00,0.0000E+000
 345.50,0.0000E+000
 346.00,0.0000E+000
 346.50,0.0000E+000
 347.00,0.0000E+000
 347.50,0.0000E+000
 348.00,0.0000E+000
 348.50,0.0000E+000
 349.00,0.0000E+000
 349.50,0.0000E+000
 350.00,0.0000E+000
 350.50,0.0000E+000
 351.00,0.0000E+000
 351.50,0.0000E+000
 352.00,0.0000E+000
 352.50,0.0000E+000
 353.00,0.0000E+000
 353.50,0.0000E+000
 354.00,0.0000E+000
 354.50,0.0000E+000
 355.00,0.0000E+000
 355.50,0.0000E+000
 356.00,0.0000E+000
 356.50,0.0000E+000
 357.00,0.0000E+000
 357.50,0.0000E+000
 358.00,0.0000E+000
 358.50,0.0000E+000
 359.00,0.0000E+000
 359.50,0.0000E+000
 360.00,0.0000E+000
 360.50,0.0000E+000
 361.00,0.0000E+000
 361.50,0.0000E+000
 362.00,0.0000E+000
 362.50,0.0000E+000
 363.00,0.0000E+000
 363.50,0.0000E+000
 364.00,0.0000E+000
 364.50,0.0000E+000
 365.00,0.0000E+000
 365.50,0.0000E+000
 366.00,0.0000E+000
 366.50,0.0000E+000
 367.00,0.0000E+000
 367.50,0.0000E+000
 368.00,0.0000E+000
 368.50,0.0000E+000
 369.00,0.0000E+000
 369.50,0.0000E+000
 370.00,0.0000E+000
 370.50,0.0000E+000
 371.00,0.0000E+000
 371.50,0.0000E+000
 372.00,0.0000E+000
 372.50,0.0000E+000
 373.00,0.0000E+000
 373.50,0.0000E+000
 374.00,0.0000E+000
 374.50,0.0000E+000
 375.00,0.0000E+000
 375.50,0.0000E+000
 376.00,0.0000E+000
 376.50,0.0000E+000
 377.00,0.0000E+000
 377.50,0.0000E+000
 378.00,0.0000E+000
 378.50,0.0000E+000
 379.00,0.0000E+000
 379.50,0.0000E+000
 380.00,0.0000E+000
 380.50,0.0000E+000
 381.00,0.0000E+000
 381.50,0.0000E+000
 382.00,0.0000E+000
 382.50,0.0000E+000
 383.00,0.0000E+000
 383.50,0.0000E+000
 384.00,0.0000E+000
 384.50,0.0000E+000
 385.00,0.0000E+000
 385.50,0.0000E+000
 386.00,0.0000E+000
 386.50,0.0000E+000
 387.00,0.0000E+000
 387.50,0.0000E+000
 388.00,0.0000E+000
 388.50,0.0000E+000
 389.00,0.0000E+000
 389.50,0.0000E+000
 390.00,0.0000E+000
 390.50,0.0000E+000
 391.00,0.0000E+000
 391.50,0.0000E+000
 392.00,0.0000E+000
 392.50,0.0000E+000
 393.00,0.0000E+000
 393.50,0.0000E+000
 394.00,0.0000E+000
 394.50,0.0000E+000
 395.00,0.0000E+000
 395.50,0.0000E+000
 396.00,0.0000E+000
 396.50,0.0000E+000
 397.00,0.0000E+000
 397.50,0.0000E+000
 398.00,0.0000E+000
 398.50,0.0000E+000
 399.00,0.0000E+000
 399.50,0.0000E+000
 400.00,0.0000E+000
 400.50,0.0000E+000
 401.00,0.0000E+000
 401.50,0.0000E+000
 402.00,0.0000E+000
 402.50,0.0000E+000
 403.00,0.0000E+000
 403.50,0.0000E+000
 404.00,0.0000E+000
 404.50,0.0000E+000
 405.00,0.0000E+000
 405.50,0.0000E+000
 406.00,0.0000E+000
 406.50,0.0000E+000
 407.00,0.0000E+000
 407.50,0.0000E+000
 408.00,0.0000E+000
 408.50,0.0000E+000
 409.00,0.0000E+000
 409.50,0.0000E+000
 410.00,0.0000E+000
 410.50,0.0000E+000
 411.00,0.0000E+000
 411.50,0.0000E+000
 412.00,0.0000E+000
 412.50,0.0000E+000
 413.00,0.0000E+000
 413.50,0.0000E+000
 414.00,0.0000E+000
 414.50,0.0000E+000
 415.00,0.0000E+000
 415.50,3.2405E-006
 416.00,7.9999E-005
 416.50,2.2689E-004
 417.00,2.9644E-004
 417.50,3.0611E-004
 418.00,2.9568E-004
 418.50,2.2233E-004
 419.00,2.0015E-004
 419.50,2.5628E-004
 420.00,3.3292E-004
 420.50,4.2395E-004
 421.00,5.0740E-004
 421.50,5.7444E-004
 422.00,6.9965E-004
 422.50,8.1800E-004
 423.00,9.6235E-004
 423.50,1.0466E-003
 424.00,1.1159E-003
 424.50,1.1697E-003
 425.00,1.2039E-003
 425.50,1.2572E-003
 426.00,1.3295E-003
 426.50,1.4245E-003
 427.00,1.5406E-003
 427.50,1.6447E-003
 428.00,1.7635E-003
 428.50,1.8947E-003
 429.00,2.0648E-003
 429.50,2.2498E-003
 430.00,2.4091E-003
 430.50,2.5442E-003
 431.00,2.6893E-003
 431.50,2.7836E-003
 432.00,2.8958E-003
 432.50,3.0335E-003
 433.00,3.2086E-003
 433.50,3.3737E-003
 434.00,3.5150E-003
 434.50,3.6145E-003
 435.00,3.7730E-003
 435.50,3.9984E-003
 436.00,4.2800E-003
 436.50,4.5683E-003
 437.00,4.8655E-003
 437.50,5.0921E-003
 438.00,5.2350E-003
 438.50,5.3130E-003
 439.00,5.4210E-003
 439.50,5.6068E-003
 440.00,5.8167E-003
 440.50,6.0623E-003
 441.00,6.2897E-003
 441.50,6.5646E-003
 442.00,6.8960E-003
 442.50,7.1283E-003
 443.00,7.4135E-003
 443.50,7.6102E-003
 444.00,7.8379E-003
 444.50,8.1404E-003
 445.00,8.4593E-003
 445.50,8.8372E-003
 446.00,9.1606E-003
 446.50,9.4239E-003
 447.00,9.6237E-003
 447.50,9.8049E-003
 448.00,9.9583E-003
 448.50,1.0045E-002
 449.00,1.0047E-002
 449.50,1.0036E-002
 450.00,1.0059E-002
 450.50,1.0032E-002
 451.00,1.0016E-002
 451.50,9.8806E-003
 452.00,9.6414E-003
 452.50,9.3812E-003
 453.00,8.9965E-003
 453.50,8.6030E-003
 454.00,8.2495E-003
 454.50,7.9083E-003
 455.00,7.6388E-003
 455.50,7.3809E-003
 456.00,7.1017E-003
 456.50,6.8558E-003
 457.00,6.6158E-003
 457.50,6.3490E-003
 458.00,6.0670E-003
 458.50,5.7589E-003
 459.00,5.4884E-003
 459.50,5.2781E-003
 460.00,5.1270E-003
 460.50,5.0527E-003
 461.00,4.9279E-003
 461.50,4.8048E-003
 462.00,4.6191E-003
 462.50,4.4483E-003
 463.00,4.3551E-003
 463.50,4.2635E-003
 464.00,4.1698E-003
 464.50,4.1024E-003
 465.00,4.0305E-003
 465.50,3.9672E-003
 466.00,3.9066E-003
 466.50,3.8030E-003
 467.00,3.7224E-003
 467.50,3.6217E-003
 468.00,3.5501E-003
 468.50,3.4883E-003
 469.00,3.4439E-003
 469.50,3.3856E-003
 470.00,3.3262E-003
 470.50,3.2699E-003
 471.00,3.2233E-003
 471.50,3.1518E-003
 472.00,3.0577E-003
 472.50,2.9634E-003
 473.00,2.8736E-003
 473.50,2.7732E-003
 474.00,2.6915E-003
 474.50,2.6861E-003
 475.00,2.7230E-003
 475.50,2.8307E-003
 476.00,2.8509E-003
 476.50,2.8686E-003
 477.00,2.8571E-003
 477.50,2.8590E-003
 478.00,2.8953E-003
 478.50,2.9247E-003
 479.00,2.9274E-003
 479.50,2.9364E-003
 480.00,2.9687E-003
 480.50,3.0331E-003
 481.00,3.1240E-003
 481.50,3.1962E-003
 482.00,3.2737E-003
 482.50,3.3228E-003
 483.00,3.3447E-003
 483.50,3.3717E-003
 484.00,3.3989E-003
 484.50,3.4562E-003
 485.00,3.4959E-003
 485.50,3.5406E-003
 486.00,3.5889E-003
 486.50,3.6858E-003
 487.00,3.7959E-003
 487.50,3.8756E-003
 488.00,3.9451E-003
 488.50,4.0030E-003
 489.00,4.0983E-003
 489.50,4.1939E-003
 490.00,4.2824E-003
 490.50,4.3682E-003
 491.00,4.4831E-003
 491.50,4.6121E-003
 492.00,4.7028E-003
 492.50,4.7928E-003
 493.00,4.8850E-003
 493.50,4.9787E-003
 494.00,5.0439E-003
 494.50,5.1154E-003
 495.00,5.2008E-003
 495.50,5.3099E-003
 496.00,5.4151E-003
 496.50,5.5301E-003
 497.00,5.6674E-003
 497.50,5.7846E-003
 498.00,5.8918E-003
 498.50,5.9707E-003
 499.00,6.0631E-003
 499.50,6.2020E-003
 500.00,6.3291E-003
 500.50,6.4647E-003
 501.00,6.5507E-003
 501.50,6.6268E-003
 502.00,6.7356E-003
 502.50,6.8692E-003
 503.00,7.0158E-003
 503.50,7.1255E-003
 504.00,7.2162E-003
 504.50,7.3227E-003
 505.00,7.4421E-003
 505.50,7.5545E-003
 506.00,7.6570E-003
 506.50,7.7543E-003
 507.00,7.8922E-003
 507.50,8.0375E-003
 508.00,8.1945E-003
 508.50,8.3384E-003
 509.00,8.4628E-003
 509.50,8.5425E-003
 510.00,8.5786E-003
 510.50,8.6152E-003
 511.00,8.7622E-003
 511.50,8.9317E-003
 512.00,9.1368E-003
 512.50,9.2566E-003
 513.00,9.3368E-003
 513.50,9.4592E-003
 514.00,9.6046E-003
 514.50,9.7690E-003
 515.00,9.8579E-003
 515.50,9.9140E-003
 516.00,1.0007E-002
 516.50,1.0140E-002
 517.00,1.0325E-002
 517.50,1.0465E-002
 518.00,1.0581E-002
 518.50,1.0680E-002
 519.00,1.0775E-002
 519.50,1.0867E-002
 520.00,1.0979E-002
 520.50,1.1095E-002
 521.00,1.1231E-002
 521.50,1.1371E-002
 522.00,1.1490E-002
 522.50,1.1618E-002
 523.00,1.1726E-002
 523.50,1.1838E-002
 524.00,1.1994E-002
 524.50,1.2148E-002
 525.00,1.2303E-002
 525.50,1.2412E-002
 526.00,1.2533E-002
 526.50,1.2705E-002
 527.00,1.2860E-002
 527.50,1.2989E-002
 528.00,1.3106E-002
 528.50,1.3206E-002
 529.00,1.3322E-002
 529.50,1.3432E-002
 530.00,1.3555E-002
 530.50,1.3740E-002
 531.00,1.3906E-002
 531.50,1.4070E-002
 532.00,1.4213E-002
 532.50,1.4362E-002
 533.00,1.4495E-002
 533.50,1.4599E-002
 534.00,1.4721E-002
 534.50,1.4870E-002
 535.00,1.5045E-002
 535.50,1.5207E-002
 536.00,1.5348E-002
 536.50,1.5501E-002
 537.00,1.5670E-002
 537.50,1.5820E-002
 538.00,1.5987E-002
 538.50,1.6125E-002
 539.00,1.6266E-002
 539.50,1.6429E-002
 540.00,1.6585E-002
 540.50,1.6729E-002
 541.00,1.6863E-002
 541.50,1.7017E-002
 542.00,1.7244E-002
 542.50,1.7483E-002
 543.00,1.7667E-002
 543.50,1.7804E-002
 544.00,1.7926E-002
 544.50,1.8124E-002
 545.00,1.8308E-002
 545.50,1.8469E-002
 546.00,1.8559E-002
 546.50,1.8669E-002
 547.00,1.8832E-002
 547.50,1.9049E-002
 548.00,1.9243E-002
 548.50,1.9391E-002
 549.00,1.9537E-002
 549.50,1.9682E-002
 550.00,1.9869E-002
 550.50,2.0013E-002
 551.00,2.0206E-002
 551.50,2.0386E-002
 552.00,2.0598E-002
 552.50,2.0767E-002
 553.00,2.0903E-002
 553.50,2.1096E-002
 554.00,2.1294E-002
 554.50,2.1461E-002
 555.00,2.1593E-002
 555.50,2.1761E-002
 556.00,2.2004E-002
 556.50,2.2267E-002
 557.00,2.2491E-002
 557.50,2.2694E-002
 558.00,2.2874E-002
 558.50,2.3029E-002
 559.00,2.3183E-002
 559.50,2.3363E-002
 560.00,2.3563E-002
 560.50,2.3746E-002
 561.00,2.3889E-002
 561.50,2.4042E-002
 562.00,2.4213E-002
 562.50,2.4451E-002
 563.00,2.4647E-002
 563.50,2.4849E-002
 564.00,2.5018E-002
 564.50,2.5179E-002
 565.00,2.5349E-002
 565.50,2.5511E-002
 566.00,2.5680E-002
 566.50,2.5879E-002
 567.00,2.6034E-002
 567.50,2.6220E-002
 568.00,2.6384E-002
 568.50,2.6578E-002
 569.00,2.6767E-002
 569.50,2.6972E-002
 570.00,2.7193E-002
 570.50,2.7408E-002
 571.00,2.7538E-002
 571.50,2.7616E-002
 572.00,2.7661E-002
 572.50,2.7760E-002
 573.00,2.7904E-002
 573.50,2.8116E-002
 574.00,2.8333E-002
 574.50,2.8541E-002
 575.00,2.8747E-002
 575.50,2.8962E-002
 576.00,2.9191E-002
 576.50,2.9346E-002
 577.00,2.9454E-002
 577.50,2.9639E-002
 578.00,2.9880E-002
 578.50,3.0063E-002
 579.00,3.0214E-002
 579.50,3.0308E-002
 580.00,3.0485E-002
 580.50,3.0611E-002
 581.00,3.0755E-002
 581.50,3.0912E-002
 582.00,3.1081E-002
 582.50,3.1226E-002
 583.00,3.1276E-002
 583.50,3.1415E-002
 584.00,3.1601E-002
 584.50,3.1799E-002
 585.00,3.1926E-002
 585.50,3.2068E-002
 586.00,3.2161E-002
 586.50,3.2354E-002
 587.00,3.2483E-002
 587.50,3.2642E-002
 588.00,3.2731E-002
 588.50,3.2791E-002
 589.00,3.2884E-002
 589.50,3.3041E-002
 590.00,3.3274E-002
 590.50,3.3420E-002
 591.00,3.3515E-002
 591.50,3.3554E-002
 592.00,3.3603E-002
 592.50,3.3707E-002
 593.00,3.3824E-002
 593.50,3.3980E-002
 594.00,3.4132E-002
 594.50,3.4190E-002
 595.00,3.4221E-002
 595.50,3.4238E-002
 596.00,3.4335E-002
 596.50,3.4474E-002
 597.00,3.4504E-002
 597.50,3.4494E-002
 598.00,3.4475E-002
 598.50,3.4538E-002
 599.00,3.4640E-002
 599.50,3.4685E-002
 600.00,3.4728E-002
 600.50,3.4730E-002
 601.00,3.4819E-002
 601.50,3.4882E-002
 602.00,3.5007E-002
 602.50,3.5075E-002
 603.00,3.5075E-002
 603.50,3.4955E-002
 604.00,3.4900E-002
 604.50,3.4856E-002
 605.00,3.4904E-002
 605.50,3.4862E-002
 606.00,3.4825E-002
 606.50,3.4834E-002
 607.00,3.4779E-002
 607.50,3.4745E-002
 608.00,3.4697E-002
 608.50,3.4732E-002
 609.00,3.4768E-002
 609.50,3.4718E-002
 610.00,3.4616E-002
 610.50,3.4487E-002
 611.00,3.4424E-002
 611.50,3.4407E-002
 612.00,3.4352E-002
 612.50,3.4263E-002
 613.00,3.4173E-002
 613.50,3.4133E-002
 614.00,3.4145E-002
 614.50,3.4109E-002
 615.00,3.4023E-002
 615.50,3.3860E-002
 616.00,3.3708E-002
 616.50,3.3673E-002
 617.00,3.3654E-002
 617.50,3.3615E-002
 618.00,3.3417E-002
 618.50,3.3188E-002
 619.00,3.2943E-002
 619.50,3.2790E-002
 620.00,3.2706E-002
 620.50,3.2630E-002
 621.00,3.2617E-002
 621.50,3.2489E-002
 622.00,3.2461E-002
 622.50,3.2314E-002
 623.00,3.2219E-002
 623.50,3.1993E-002
 624.00,3.1777E-002
 624.50,3.1537E-002
 625.00,3.1415E-002
 625.50,3.1362E-002
 626.00,3.1219E-002
 626.50,3.1113E-002
 627.00,3.0947E-002
 627.50,3.0879E-002
 628.00,3.0745E-002
 628.50,3.0596E-002
 629.00,3.0464E-002
 629.50,3.0218E-002
 630.00,3.0006E-002
 630.50,2.9802E-002
 631.00,2.9615E-002
 631.50,2.9432E-002
 632.00,2.9172E-002
 632.50,2.9000E-002
 633.00,2.8860E-002
 633.50,2.8723E-002
 634.00,2.8632E-002
 634.50,2.8459E-002
 635.00,2.8274E-002
 635.50,2.8018E-002
 636.00,2.7773E-002
 636.50,2.7541E-002
 637.00,2.7416E-002
 637.50,2.7270E-002
 638.00,2.7077E-002
 638.50,2.6822E-002
 639.00,2.6540E-002
 639.50,2.6358E-002
 640.00,2.6185E-002
 640.50,2.6073E-002
 641.00,2.5950E-002
 641.50,2.5816E-002
 642.00,2.5695E-002
 642.50,2.5507E-002
 643.00,2.5211E-002
 643.50,2.4815E-002
 644.00,2.4524E-002
 644.50,2.4338E-002
 645.00,2.4233E-002
 645.50,2.4143E-002
 646.00,2.3971E-002
 646.50,2.3735E-002
 647.00,2.3489E-002
 647.50,2.3293E-002
 648.00,2.3112E-002
 648.50,2.2890E-002
 649.00,2.2579E-002
 649.50,2.2307E-002
 650.00,2.2126E-002
 650.50,2.2023E-002
 651.00,2.1827E-002
 651.50,2.1554E-002
 652.00,2.1280E-002
 652.50,2.1080E-002
 653.00,2.0931E-002
 653.50,2.0748E-002
 654.00,2.0525E-002
 654.50,2.0223E-002
 655.00,2.0000E-002
 655.50,1.9851E-002
 656.00,1.9771E-002
 656.50,1.9584E-002
 657.00,1.9372E-002
 657.50,1.9098E-002
 658.00,1.8822E-002
 658.50,1.8630E-002
 659.00,1.8478E-002
 659.50,1.8384E-002
 660.00,1.8195E-002
 660.50,1.8021E-002
 661.00,1.7814E-002
 661.50,1.7640E-002
 662.00,1.7472E-002
 662.50,1.7310E-002
 663.00,1.7118E-002
 663.50,1.6798E-002
 664.00,1.6508E-002
 664.50,1.6267E-002
 665.00,1.6053E-002
 665.50,1.5877E-002
 666.00,1.5636E-002
 666.50,1.5520E-002
 667.00,1.5365E-002
 667.50,1.5290E-002
 668.00,1.5090E-002
 668.50,1.4947E-002
 669.00,1.4761E-002
 669.50,1.4596E-002
 670.00,1.4375E-002
 670.50,1.4251E-002
 671.00,1.4089E-002
 671.50,1.3988E-002
 672.00,1.3738E-002
 672.50,1.3515E-002
 673.00,1.3256E-002
 673.50,1.3074E-002
 674.00,1.2963E-002
 674.50,1.2834E-002
 675.00,1.2738E-002
 675.50,1.2580E-002
 676.00,1.2383E-002
 676.50,1.2237E-002
 677.00,1.2065E-002
 677.50,1.1898E-002
 678.00,1.1669E-002
 678.50,1.1457E-002
 679.00,1.1268E-002
 679.50,1.1127E-002
 680.00,1.1039E-002
 680.50,1.0948E-002
 681.00,1.0841E-002
 681.50,1.0689E-002
 682.00,1.0552E-002
 682.50,1.0324E-002
 683.00,1.0171E-002
 683.50,1.0060E-002
 684.00,1.0095E-002
 684.50,9.9977E-003
 685.00,9.8811E-003
 685.50,9.6976E-003
 686.00,9.5811E-003
 686.50,9.4562E-003
 687.00,9.3917E-003
 687.50,9.2568E-003
 688.00,9.0706E-003
 688.50,8.8544E-003
 689.00,8.7003E-003
 689.50,8.5550E-003
 690.00,8.3984E-003
 690.50,8.2640E-003
 691.00,8.1813E-003
 691.50,8.1454E-003
 692.00,8.0321E-003
 692.50,7.8596E-003
 693.00,7.7019E-003
 693.50,7.6467E-003
 694.00,7.5983E-003
 694.50,7.5289E-003
 695.00,7.4529E-003
 695.50,7.3957E-003
 696.00,7.2839E-003
 696.50,7.1315E-003
 697.00,6.9737E-003
 697.50,6.9127E-003
 698.00,6.7328E-003
 698.50,6.5142E-003
 699.00,6.2713E-003
 699.50,6.1691E-003
 700.00,6.2158E-003
 700.50,6.2747E-003
 701.00,6.3360E-003
 701.50,6.2580E-003
 702.00,6.1330E-003
 702.50,5.9946E-003
 703.00,5.9472E-003
 703.50,5.8602E-003
 704.00,5.7553E-003
 704.50,5.5928E-003
 705.00,5.5151E-003
 705.50,5.4159E-003
 706.00,5.3110E-003
 706.50,5.1912E-003
 707.00,5.1373E-003
 707.50,5.0754E-003
 708.00,5.0013E-003
 708.50,4.9233E-003
 709.00,4.8366E-003
 709.50,4.8014E-003
 710.00,4.7024E-003
 710.50,4.6250E-003
 711.00,4.4812E-003
 711.50,4.2687E-003
 712.00,4.2469E-003
 712.50,4.2986E-003
 713.00,4.2928E-003
 713.50,4.1229E-003
 714.00,3.9947E-003
 714.50,4.0437E-003
 715.00,4.0533E-003
 715.50,4.0296E-003
 716.00,3.9277E-003
 716.50,3.7605E-003
 717.00,3.5901E-003
 717.50,3.5387E-003
 718.00,3.4650E-003
 718.50,3.4149E-003
 719.00,3.3689E-003
 719.50,3.3249E-003
 720.00,3.2620E-003
 720.50,3.1916E-003
 721.00,3.2014E-003
 721.50,3.0375E-003
 722.00,2.9959E-003
 722.50,2.9899E-003
 723.00,3.0542E-003
 723.50,2.9679E-003
 724.00,2.9164E-003
 724.50,2.8694E-003
 725.00,2.7522E-003
 725.50,2.6376E-003
 726.00,2.5807E-003
 726.50,2.5373E-003
 727.00,2.4553E-003
 727.50,2.4052E-003
 728.00,2.4161E-003
 728.50,2.4531E-003
 729.00,2.4672E-003
 729.50,2.3988E-003
 730.00,2.3433E-003
 730.50,2.1865E-003
 731.00,2.0935E-003
 731.50,2.0487E-003
 732.00,2.0643E-003
 732.50,2.0387E-003
 733.00,1.9604E-003
 733.50,2.0171E-003
 734.00,2.0485E-003
 734.50,2.0261E-003
 735.00,1.8845E-003
 735.50,1.8672E-003
 736.00,1.8754E-003
 736.50,1.7951E-003
 737.00,1.6946E-003
 737.50,1.6331E-003
 738.00,1.6574E-003
 738.50,1.6242E-003
 739.00,1.5928E-003
 739.50,1.5351E-003
 740.00,1.4969E-003
 740.50,1.4165E-003
 741.00,1.3485E-003
 741.50,1.2966E-003
 742.00,1.2334E-003
 742.50,1.1639E-003
 743.00,1.1518E-003
 743.50,1.2521E-003
 744.00,1.2465E-003
 744.50,1.1343E-003
 745.00,1.0673E-003
 745.50,1.1176E-003
 746.00,1.1321E-003
 746.50,1.1102E-003
 747.00,1.1431E-003
 747.50,1.0993E-003
 748.00,1.0452E-003
 748.50,9.7390E-004
 749.00,8.7609E-004
 749.50,7.6884E-004
 750.00,7.8855E-004
 750.50,9.7624E-004
 751.00,9.8919E-004
 751.50,1.0226E-003
 752.00,8.9619E-004
 752.50,7.4689E-004
 753.00,5.8914E-004
 753.50,5.8377E-004
 754.00,6.6928E-004
 754.50,6.0975E-004
 755.00,5.7580E-004
 755.50,5.6751E-004
 756.00,6.0813E-004
 756.50,5.1198E-004
 757.00,5.5716E-004
 757.50,5.0832E-004
 758.00,4.2091E-004
 758.50,2.1680E-004
 759.00,1.7329E-004
 759.50,2.3108E-004
 760.00,2.8623E-004
 760.50,2.0931E-004
 761.00,2.0195E-004
 761.50,1.9129E-004
 762.00,1.8714E-004
 762.50,1.7405E-004
 763.00,2.4782E-004
 763.50,3.1206E-004
 764.00,3.6729E-004
 764.50,3.4009E-004
 765.00,2.7331E-004
 765.50,1.2304E-004
 766.00,1.2391E-004
 766.50,1.5152E-004
 767.00,2.2403E-004
 767.50,2.6865E-005
 768.00,0.0000E+000
 768.50,0.0000E+000
 769.00,0.0000E+000
 769.50,0.0000E+000
 770.00,1.9278E-005
 770.50,1.0394E-004
 771.00,1.7831E-005
 771.50,0.0000E+000
 772.00,0.0000E+000
 772.50,0.0000E+000
 773.00,0.0000E+000
 773.50,0.0000E+000
 774.00,0.0000E+000
 774.50,2.1205E-005
 775.00,0.0000E+000
 775.50,0.0000E+000
 776.00,0.0000E+000
 776.50,0.0000E+000
 777.00,0.0000E+000
 777.50,0.0000E+000
 778.00,0.0000E+000
 778.50,0.0000E+000
 779.00,0.0000E+000
 779.50,0.0000E+000
 780.00,0.0000E+000
 780.50,0.0000E+000
 781.00,0.0000E+000
 781.50,0.0000E+000
 782.00,0.0000E+000
 782.50,0.0000E+000
 783.00,0.0000E+000
 783.50,0.0000E+000
 784.00,0.0000E+000
 784.50,0.0000E+000
 785.00,0.0000E+000
 785.50,0.0000E+000
 786.00,0.0000E+000
 786.50,0.0000E+000
 787.00,0.0000E+000
 787.50,0.0000E+000
 788.00,0.0000E+000
 788.50,0.0000E+000
 789.00,0.0000E+000
 789.50,0.0000E+000
 790.00,0.0000E+000
 790.50,0.0000E+000
 791.00,0.0000E+000
 791.50,0.0000E+000
 792.00,0.0000E+000
 792.50,0.0000E+000
 793.00,0.0000E+000
 793.50,0.0000E+000
 794.00,0.0000E+000
 794.50,0.0000E+000
 795.00,0.0000E+000
 795.50,0.0000E+000
 796.00,0.0000E+000
 796.50,0.0000E+000
 797.00,0.0000E+000
 797.50,0.0000E+000
 798.00,0.0000E+000
 798.50,0.0000E+000
 799.00,0.0000E+000
 799.50,0.0000E+000
 800.00,0.0000E+000
 800.50,0.0000E+000
 801.00,0.0000E+000
 801.50,0.0000E+000
 802.00,0.0000E+000
 802.50,0.0000E+000
 803.00,0.0000E+000
 803.50,0.0000E+000
 804.00,0.0000E+000
 804.50,0.0000E+000
 805.00,0.0000E+000
 805.50,0.0000E+000
 806.00,0.0000E+000
 806.50,0.0000E+000
 807.00,0.0000E+000
 807.50,0.0000E+000
 808.00,0.0000E+000
 808.50,0.0000E+000
 809.00,0.0000E+000
 809.50,0.0000E+000
 810.00,0.0000E+000
 810.50,0.0000E+000
 811.00,0.0000E+000
 811.50,0.0000E+000
 812.00,0.0000E+000
 812.50,0.0000E+000
 813.00,0.0000E+000
 813.50,0.0000E+000
 814.00,0.0000E+000
 814.50,0.0000E+000
 815.00,0.0000E+000
 815.50,0.0000E+000
 816.00,0.0000E+000
 816.50,0.0000E+000
 817.00,0.0000E+000
 817.50,0.0000E+000
 818.00,0.0000E+000
 818.50,0.0000E+000
 819.00,0.0000E+000
 819.50,0.0000E+000
 820.00,0.0000E+000
 820.50,0.0000E+000
 821.00,0.0000E+000
 821.50,0.0000E+000
 822.00,0.0000E+000
 822.50,0.0000E+000
 823.00,0.0000E+000
 823.50,0.0000E+000
 824.00,0.0000E+000
 824.50,0.0000E+000
 825.00,0.0000E+000
 825.50,0.0000E+000
 826.00,0.0000E+000
 826.50,0.0000E+000
 827.00,0.0000E+000
 827.50,0.0000E+000
 828.00,0.0000E+000
 828.50,0.0000E+000
 829.00,0.0000E+000
 829.50,0.0000E+000
 830.00,0.0000E+000
 830.50,0.0000E+000
 831.00,0.0000E+000
 831.50,0.0000E+000
 832.00,0.0000E+000
 832.50,0.0000E+000
 833.00,0.0000E+000
 833.50,0.0000E+000
 834.00,0.0000E+000
 834.50,0.0000E+000
 835.00,0.0000E+000
 835.50,0.0000E+000
 836.00,0.0000E+000
 836.50,0.0000E+000
 837.00,0.0000E+000
 837.50,0.0000E+000
 838.00,0.0000E+000
 838.50,0.0000E+000
 839.00,0.0000E+000
 839.50,0.0000E+000
 840.00,0.0000E+000
 840.50,0.0000E+000
 841.00,0.0000E+000
 841.50,0.0000E+000
 842.00,0.0000E+000
 842.50,0.0000E+000
 843.00,0.0000E+000
 843.50,0.0000E+000
 844.00,0.0000E+000
 844.50,0.0000E+000
 845.00,0.0000E+000
 845.50,0.0000E+000
 846.00,0.0000E+000
 846.50,0.0000E+000
 847.00,0.0000E+000
 847.50,0.0000E+000
 848.00,0.0000E+000
 848.50,0.0000E+000
 849.00,0.0000E+000
 849.50,0.0000E+000
 850.00,0.0000E+000
 850.50,0.0000E+000
 851.00,0.0000E+000
 851.50,0.0000E+000
 852.00,0.0000E+000
 852.50,0.0000E+000
 853.00,0.0000E+000
 853.50,0.0000E+000
 854.00,0.0000E+000
 854.50,0.0000E+000
 855.00,0.0000E+000
 855.50,0.0000E+000
 856.00,0.0000E+000
 856.50,0.0000E+000
 857.00,0.0000E+000
 857.50,0.0000E+000
 858.00,0.0000E+000
 858.50,0.0000E+000
 859.00,0.0000E+000
 859.50,0.0000E+000
 860.00,0.0000E+000
 860.50,0.0000E+000
 861.00,0.0000E+000
 861.50,0.0000E+000
 862.00,0.0000E+000
 862.50,0.0000E+000
 863.00,0.0000E+000
 863.50,0.0000E+000
 864.00,0.0000E+000
 864.50,0.0000E+000
 865.00,0.0000E+000
 865.50,0.0000E+000
 866.00,0.0000E+000
 866.50,0.0000E+000
 867.00,0.0000E+000
 867.50,0.0000E+000
 868.00,0.0000E+000
 868.50,0.0000E+000
 869.00,0.0000E+000
 869.50,0.0000E+000
 870.00,0.0000E+000
 870.50,0.0000E+000
 871.00,0.0000E+000
 871.50,0.0000E+000
 872.00,0.0000E+000
 872.50,0.0000E+000
 873.00,0.0000E+000
 873.50,0.0000E+000
 874.00,0.0000E+000
 874.50,0.0000E+000
 875.00,0.0000E+000
 875.50,0.0000E+000
 876.00,0.0000E+000
 876.50,0.0000E+000
 877.00,0.0000E+000
 877.50,0.0000E+000
 878.00,0.0000E+000
 878.50,0.0000E+000
 879.00,0.0000E+000
 879.50,0.0000E+000
 880.00,0.0000E+000
 880.50,0.0000E+000
 881.00,0.0000E+000
 881.50,0.0000E+000
 882.00,0.0000E+000
 882.50,0.0000E+000
 883.00,0.0000E+000
 883.50,0.0000E+000
 884.00,0.0000E+000
 884.50,0.0000E+000
 885.00,0.0000E+000
 885.50,0.0000E+000
 886.00,0.0000E+000
 886.50,0.0000E+000
 887.00,0.0000E+000
 887.50,0.0000E+000
 888.00,0.0000E+000
 888.50,0.0000E+000
 889.00,0.0000E+000
 889.50,0.0000E+000
 890.00,0.0000E+000
 890.50,0.0000E+000
 891.00,0.0000E+000
 891.50,0.0000E+000
 892.00,0.0000E+000
 892.50,0.0000E+000
 893.00,0.0000E+000
 893.50,0.0000E+000
 894.00,0.0000E+000
 894.50,0.0000E+000
 895.00,0.0000E+000
 895.50,0.0000E+000
 896.00,0.0000E+000
 896.50,0.0000E+000
 897.00,0.0000E+000
 897.50,0.0000E+000
 898.00,0.0000E+000
 898.50,0.0000E+000
 899.00,0.0000E+000
 899.50,0.0000E+000

