wavelength,intensity
 273.00,0.0000E+000
 273.50,0.0000E+000
 274.00,0.0000E+000
 274.50,0.0000E+000
 275.00,0.0000E+000
 275.50,0.0000E+000
 276.00,0.0000E+000
 276.50,0.0000E+000
 277.00,0.0000E+000
 277.50,0.0000E+000
 278.00,0.0000E+000
 278.50,0.0000E+000
 279.00,0.0000E+000
 279.50,0.0000E+000
 280.00,0.0000E+000
 280.50,0.0000E+000
 281.00,0.0000E+000
 281.50,0.0000E+000
 282.00,0.0000E+000
 282.50,0.0000E+000
 283.00,0.0000E+000
 283.50,0.0000E+000
 284.00,0.0000E+000
 284.50,0.0000E+000
 285.00,0.0000E+000
 285.50,0.0000E+000
 286.00,0.0000E+000
 286.50,0.0000E+000
 287.00,0.0000E+000
 287.50,0.0000E+000
 288.00,0.0000E+000
 288.50,0.0000E+000
 289.00,0.0000E+000
 289.50,0.0000E+000
 290.00,0.0000E+000
 290.50,0.0000E+000
 291.00,0.0000E+000
 291.50,0.0000E+000
 292.00,0.0000E+000
 292.50,0.0000E+000
 293.00,0.0000E+000
 293.50,0.0000E+000
 294.00,0.0000E+000
 294.50,0.0000E+000
 295.00,0.0000E+000
 295.50,0.0000E+000
 296.00,0.0000E+000
 296.50,0.0000E+000
 297.00,0.0000E+000
 297.50,0.0000E+000
 298.00,0.0000E+000
 298.50,0.0000E+000
 299.00,0.0000E+000
 299.50,0.0000E+000
 300.00,0.0000E+000
 300.50,0.0000E+000
 301.00,0.0000E+000
 301.50,0.0000E+000
 302.00,0.0000E+000
 302.50,0.0000E+000
 303.00,0.0000E+000
 303.50,0.0000E+000
 304.00,0.0000E+000
 304.50,0.0000E+000
 305.00,0.0000E+000
 305.50,0.0000E+000
 306.00,0.0000E+000
 306.50,0.0000E+000
 307.00,0.0000E+000
 307.50,0.0000E+000
 308.00,0.0000E+000
 308.50,0.0000E+000
 309.00,0.0000E+000
 309.50,0.0000E+000
 310.00,0.0000E+000
 310.50,0.0000E+000
 311.00,0.0000E+000
 311.50,0.0000E+000
 312.00,0.0000E+000
 312.50,0.0000E+000
 313.00,0.0000E+000
 313.50,0.0000E+000
 314.00,0.0000E+000
 314.50,0.0000E+000
 315.00,0.0000E+000
 315.50,0.0000E+000
 316.00,0.0000E+000
 316.50,0.0000E+000
 317.00,0.0000E+000
 317.50,0.0000E+000
 318.00,0.0000E+000
 318.50,0.0000E+000
 319.00,0.0000E+000
 319.50,0.0000E+000
 320.00,0.0000E+000
 320.50,0.0000E+000
 321.00,0.0000E+000
 321.50,0.0000E+000
 322.00,0.0000E+000
 322.50,0.0000E+000
 323.00,0.0000E+000
 323.50,0.0000E+000
 324.00,0.0000E+000
 324.50,0.0000E+000
 325.00,0.0000E+000
 325.50,0.0000E+000
 326.00,0.0000E+000
 326.50,0.0000E+000
 327.00,0.0000E+000
 327.50,0.0000E+000
 328.00,0.0000E+000
 328.50,0.0000E+000
 329.00,0.0000E+000
 329.50,0.0000E+000
 330.00,0.0000E+000
 330.50,0.0000E+000
 331.00,0.0000E+000
 331.50,0.0000E+000
 332.00,0.0000E+000
 332.50,0.0000E+000
 333.00,0.0000E+000
 333.50,0.0000E+000
 334.00,0.0000E+000
 334.50,0.0000E+000
 335.00,0.0000E+000
 335.50,0.0000E+000
 336.00,0.0000E+000
 336.50,0.0000E+000
 337.00,0.0000E+000
 337.50,0.0000E+000
 338.00,0.0000E+000
 338.50,0.0000E+000
 339.00,0.0000E+000
 339.50,0.0000E+000
 340.00,0.0000E+000
 340.50,0.0000E+000
 341.00,0.0000E+000
 341.50,0.0000E+000
 342.00,0.0000E+000
 342.50,0.0000E+000
 343.00,0.0000E+000
 343.50,0.0000E+000
 344.00,0.0000E+000
 344.50,0.0000E+000
 345.00,0.0000E+000
 345.50,0.0000E+000
 346.00,0.0000E+000
 346.50,0.0000E+000
 347.00,0.0000E+000
 347.50,0.0000E+000
 348.00,0.0000E+000
 348.50,0.0000E+000
 349.00,0.0000E+000
 349.50,0.0000E+000
 350.00,0.0000E+000
 350.50,0.0000E+000
 351.00,0.0000E+000
 351.50,0.0000E+000
 352.00,0.0000E+000
 352.50,0.0000E+000
 353.00,0.0000E+000
 353.50,0.0000E+000
 354.00,0.0000E+000
 354.50,0.0000E+000
 355.00,0.0000E+000
 355.50,0.0000E+000
 356.00,0.0000E+000
 356.50,0.0000E+000
 357.00,0.0000E+000
 357.50,0.0000E+000
 358.00,0.0000E+000
 358.50,0.0000E+000
 359.00,0.0000E+000
 359.50,0.0000E+000
 360.00,0.0000E+000
 360.50,0.0000E+000
 361.00,0.0000E+000
 361.50,0.0000E+000
 362.00,0.0000E+000
 362.50,0.0000E+000
 363.00,0.0000E+000
 363.50,0.0000E+000
 364.00,0.0000E+000
 364.50,0.0000E+000
 365.00,0.0000E+000
 365.50,0.0000E+000
 366.00,0.0000E+000
 366.50,0.0000E+000
 367.00,0.0000E+000
 367.50,0.0000E+000
 368.00,0.0000E+000
 368.50,0.0000E+000
 369.00,0.0000E+000
 369.50,0.0000E+000
 370.00,0.0000E+000
 370.50,0.0000E+000
 371.00,0.0000E+000
 371.50,0.0000E+000
 372.00,0.0000E+000
 372.50,0.0000E+000
 373.00,0.0000E+000
 373.50,0.0000E+000
 374.00,0.0000E+000
 374.50,0.0000E+000
 375.00,0.0000E+000
 375.50,0.0000E+000
 376.00,0.0000E+000
 376.50,0.0000E+000
 377.00,0.0000E+000
 377.50,0.0000E+000
 378.00,0.0000E+000
 378.50,0.0000E+000
 379.00,0.0000E+000
 379.50,0.0000E+000
 380.00,0.0000E+000
 380.50,0.0000E+000
 381.00,0.0000E+000
 381.50,0.0000E+000
 382.00,0.0000E+000
 382.50,0.0000E+000
 383.00,0.0000E+000
 383.50,0.0000E+000
 384.00,0.0000E+000
 384.50,0.0000E+000
 385.00,0.0000E+000
 385.50,0.0000E+000
 386.00,0.0000E+000
 386.50,0.0000E+000
 387.00,0.0000E+000
 387.50,0.0000E+000
 388.00,0.0000E+000
 388.50,0.0000E+000
 389.00,0.0000E+000
 389.50,0.0000E+000
 390.00,0.0000E+000
 390.50,0.0000E+000
 391.00,0.0000E+000
 391.50,0.0000E+000
 392.00,0.0000E+000
 392.50,0.0000E+000
 393.00,0.0000E+000
 393.50,0.0000E+000
 394.00,0.0000E+000
 394.50,0.0000E+000
 395.00,0.0000E+000
 395.50,0.0000E+000
 396.00,0.0000E+000
 396.50,0.0000E+000
 397.00,0.0000E+000
 397.50,0.0000E+000
 398.00,0.0000E+000
 398.50,0.0000E+000
 399.00,0.0000E+000
 399.50,0.0000E+000
 400.00,0.0000E+000
 400.50,0.0000E+000
 401.00,0.0000E+000
 401.50,0.0000E+000
 402.00,0.0000E+000
 402.50,3.1597E-005
 403.00,6.4381E-005
 403.50,1.3538E-004
 404.00,1.7596E-004
 404.50,1.8992E-004
 405.00,1.9928E-004
 405.50,2.1660E-004
 406.00,2.5792E-004
 406.50,3.3278E-004
 407.00,3.9145E-004
 407.50,4.0450E-004
 408.00,4.0938E-004
 408.50,3.9294E-004
 409.00,4.3504E-004
 409.50,5.7083E-004
 410.00,7.0949E-004
 410.50,8.4410E-004
 411.00,9.1698E-004
 411.50,9.6252E-004
 412.00,1.0231E-003
 412.50,1.1142E-003
 413.00,1.2047E-003
 413.50,1.3164E-003
 414.00,1.4042E-003
 414.50,1.5079E-003
 415.00,1.6538E-003
 415.50,1.8636E-003
 416.00,2.1150E-003
 416.50,2.3425E-003
 417.00,2.5589E-003
 417.50,2.7282E-003
 418.00,2.9152E-003
 418.50,3.1094E-003
 419.00,3.3487E-003
 419.50,3.6562E-003
 420.00,3.9703E-003
 420.50,4.2960E-003
 421.00,4.5880E-003
 421.50,4.8768E-003
 422.00,5.2547E-003
 422.50,5.6070E-003
 423.00,6.0129E-003
 423.50,6.4058E-003
 424.00,6.7936E-003
 424.50,7.1876E-003
 425.00,7.5969E-003
 425.50,8.0020E-003
 426.00,8.4426E-003
 426.50,8.9368E-003
 427.00,9.4980E-003
 427.50,1.0163E-002
 428.00,1.0819E-002
 428.50,1.1446E-002
 429.00,1.2064E-002
 429.50,1.2715E-002
 430.00,1.3394E-002
 430.50,1.3991E-002
 431.00,1.4587E-002
 431.50,1.5140E-002
 432.00,1.5833E-002
 432.50,1.6657E-002
 433.00,1.7478E-002
 433.50,1.8224E-002
 434.00,1.8972E-002
 434.50,1.9758E-002
 435.00,2.0647E-002
 435.50,2.1528E-002
 436.00,2.2410E-002
 436.50,2.3237E-002
 437.00,2.4227E-002
 437.50,2.5154E-002
 438.00,2.6067E-002
 438.50,2.6918E-002
 439.00,2.7756E-002
 439.50,2.8678E-002
 440.00,2.9697E-002
 440.50,3.0824E-002
 441.00,3.1942E-002
 441.50,3.3135E-002
 442.00,3.4372E-002
 442.50,3.5594E-002
 443.00,3.6942E-002
 443.50,3.8169E-002
 444.00,3.9305E-002
 444.50,4.0445E-002
 445.00,4.1668E-002
 445.50,4.2844E-002
 446.00,4.4056E-002
 446.50,4.5055E-002
 447.00,4.5928E-002
 447.50,4.6787E-002
 448.00,4.7423E-002
 448.50,4.8008E-002
 449.00,4.8368E-002
 449.50,4.8596E-002
 450.00,4.8638E-002
 450.50,4.8407E-002
 451.00,4.8121E-002
 451.50,4.7597E-002
 452.00,4.6966E-002
 452.50,4.6239E-002
 453.00,4.5316E-002
 453.50,4.4157E-002
 454.00,4.2930E-002
 454.50,4.1555E-002
 455.00,4.0273E-002
 455.50,3.9026E-002
 456.00,3.7726E-002
 456.50,3.6609E-002
 457.00,3.5549E-002
 457.50,3.4483E-002
 458.00,3.3329E-002
 458.50,3.2023E-002
 459.00,3.0885E-002
 459.50,2.9872E-002
 460.00,2.8995E-002
 460.50,2.8243E-002
 461.00,2.7420E-002
 461.50,2.6652E-002
 462.00,2.5985E-002
 462.50,2.5356E-002
 463.00,2.4901E-002
 463.50,2.4486E-002
 464.00,2.4149E-002
 464.50,2.3739E-002
 465.00,2.3351E-002
 465.50,2.2970E-002
 466.00,2.2514E-002
 466.50,2.2086E-002
 467.00,2.1523E-002
 467.50,2.1039E-002
 468.00,2.0648E-002
 468.50,2.0338E-002
 469.00,1.9984E-002
 469.50,1.9534E-002
 470.00,1.8998E-002
 470.50,1.8582E-002
 471.00,1.8304E-002
 471.50,1.8066E-002
 472.00,1.7813E-002
 472.50,1.7528E-002
 473.00,1.7299E-002
 473.50,1.7061E-002
 474.00,1.6862E-002
 474.50,1.6625E-002
 475.00,1.6408E-002
 475.50,1.6251E-002
 476.00,1.6109E-002
 476.50,1.6086E-002
 477.00,1.6043E-002
 477.50,1.6048E-002
 478.00,1.6040E-002
 478.50,1.6094E-002
 479.00,1.6105E-002
 479.50,1.6092E-002
 480.00,1.6120E-002
 480.50,1.6159E-002
 481.00,1.6229E-002
 481.50,1.6326E-002
 482.00,1.6480E-002
 482.50,1.6625E-002
 483.00,1.6728E-002
 483.50,1.6845E-002
 484.00,1.6986E-002
 484.50,1.7184E-002
 485.00,1.7366E-002
 485.50,1.7461E-002
 486.00,1.7591E-002
 486.50,1.7774E-002
 487.00,1.7969E-002
 487.50,1.8204E-002
 488.00,1.8394E-002
 488.50,1.8547E-002
 489.00,1.8769E-002
 489.50,1.9004E-002
 490.00,1.9258E-002
 490.50,1.9499E-002
 491.00,1.9724E-002
 491.50,1.9997E-002
 492.00,2.0290E-002
 492.50,2.0557E-002
 493.00,2.0841E-002
 493.50,2.1119E-002
 494.00,2.1387E-002
 494.50,2.1650E-002
 495.00,2.1900E-002
 495.50,2.2221E-002
 496.00,2.2536E-002
 496.50,2.2848E-002
 497.00,2.3161E-002
 497.50,2.3443E-002
 498.00,2.3767E-002
 498.50,2.4068E-002
 499.00,2.4411E-002
 499.50,2.4694E-002
 500.00,2.4993E-002
 500.50,2.5283E-002
 501.00,2.5572E-002
 501.50,2.5893E-002
 502.00,2.6189E-002
 502.50,2.6559E-002
 503.00,2.6919E-002
 503.50,2.7243E-002
 504.00,2.7557E-002
 504.50,2.7839E-002
 505.00,2.8096E-002
 505.50,2.8335E-002
 506.00,2.8553E-002
 506.50,2.8803E-002
 507.00,2.9128E-002
 507.50,2.9432E-002
 508.00,2.9745E-002
 508.50,3.0021E-002
 509.00,3.0294E-002
 509.50,3.0604E-002
 510.00,3.0933E-002
 510.50,3.1202E-002
 511.00,3.1476E-002
 511.50,3.1680E-002
 512.00,3.1962E-002
 512.50,3.2252E-002
 513.00,3.2564E-002
 513.50,3.2904E-002
 514.00,3.3186E-002
 514.50,3.3523E-002
 515.00,3.3777E-002
 515.50,3.4090E-002
 516.00,3.4333E-002
 516.50,3.4626E-002
 517.00,3.4933E-002
 517.50,3.5202E-002
 518.00,3.5489E-002
 518.50,3.5736E-002
 519.00,3.5996E-002
 519.50,3.6287E-002
 520.00,3.6614E-002
 520.50,3.6925E-002
 521.00,3.7180E-002
 521.50,3.7377E-002
 522.00,3.7581E-002
 522.50,3.7846E-002
 523.00,3.8134E-002
 523.50,3.8432E-002
 524.00,3.8693E-002
 524.50,3.9006E-002
 525.00,3.9294E-002
 525.50,3.9565E-002
 526.00,3.9776E-002
 526.50,4.0006E-002
 527.00,4.0195E-002
 527.50,4.0448E-002
 528.00,4.0645E-002
 528.50,4.0907E-002
 529.00,4.1148E-002
 529.50,4.1423E-002
 530.00,4.1692E-002
 530.50,4.1953E-002
 531.00,4.2251E-002
 531.50,4.2502E-002
 532.00,4.2762E-002
 532.50,4.2998E-002
 533.00,4.3244E-002
 533.50,4.3524E-002
 534.00,4.3784E-002
 534.50,4.4016E-002
 535.00,4.4288E-002
 535.50,4.4597E-002
 536.00,4.4871E-002
 536.50,4.5045E-002
 537.00,4.5217E-002
 537.50,4.5361E-002
 538.00,4.5677E-002
 538.50,4.5941E-002
 539.00,4.6317E-002
 539.50,4.6624E-002
 540.00,4.6908E-002
 540.50,4.7152E-002
 541.00,4.7384E-002
 541.50,4.7586E-002
 542.00,4.7810E-002
 542.50,4.7996E-002
 543.00,4.8200E-002
 543.50,4.8435E-002
 544.00,4.8670E-002
 544.50,4.8939E-002
 545.00,4.9176E-002
 545.50,4.9344E-002
 546.00,4.9511E-002
 546.50,4.9713E-002
 547.00,4.9930E-002
 547.50,5.0248E-002
 548.00,5.0512E-002
 548.50,5.0795E-002
 549.00,5.1044E-002
 549.50,5.1212E-002
 550.00,5.1350E-002
 550.50,5.1462E-002
 551.00,5.1725E-002
 551.50,5.2050E-002
 552.00,5.2355E-002
 552.50,5.2525E-002
 553.00,5.2631E-002
 553.50,5.2801E-002
 554.00,5.2956E-002
 554.50,5.3131E-002
 555.00,5.3297E-002
 555.50,5.3552E-002
 556.00,5.3833E-002
 556.50,5.4042E-002
 557.00,5.4178E-002
 557.50,5.4487E-002
 558.00,5.4810E-002
 558.50,5.5035E-002
 559.00,5.5112E-002
 559.50,5.5201E-002
 560.00,5.5421E-002
 560.50,5.5619E-002
 561.00,5.5686E-002
 561.50,5.5659E-002
 562.00,5.5810E-002
 562.50,5.6062E-002
 563.00,5.6273E-002
 563.50,5.6460E-002
 564.00,5.6558E-002
 564.50,5.6735E-002
 565.00,5.6901E-002
 565.50,5.6993E-002
 566.00,5.7022E-002
 566.50,5.7048E-002
 567.00,5.7073E-002
 567.50,5.7193E-002
 568.00,5.7332E-002
 568.50,5.7501E-002
 569.00,5.7669E-002
 569.50,5.7926E-002
 570.00,5.8179E-002
 570.50,5.8333E-002
 571.00,5.8414E-002
 571.50,5.8492E-002
 572.00,5.8599E-002
 572.50,5.8675E-002
 573.00,5.8689E-002
 573.50,5.8722E-002
 574.00,5.8736E-002
 574.50,5.8779E-002
 575.00,5.8842E-002
 575.50,5.8876E-002
 576.00,5.8935E-002
 576.50,5.8994E-002
 577.00,5.9186E-002
 577.50,5.9348E-002
 578.00,5.9491E-002
 578.50,5.9571E-002
 579.00,5.9711E-002
 579.50,5.9785E-002
 580.00,5.9865E-002
 580.50,5.9873E-002
 581.00,5.9898E-002
 581.50,5.9991E-002
 582.00,6.0077E-002
 582.50,6.0190E-002
 583.00,6.0199E-002
 583.50,6.0264E-002
 584.00,6.0331E-002
 584.50,6.0261E-002
 585.00,6.0160E-002
 585.50,6.0036E-002
 586.00,6.0126E-002
 586.50,6.0283E-002
 587.00,6.0414E-002
 587.50,6.0439E-002
 588.00,6.0438E-002
 588.50,6.0525E-002
 589.00,6.0652E-002
 589.50,6.0714E-002
 590.00,6.0707E-002
 590.50,6.0578E-002
 591.00,6.0497E-002
 591.50,6.0478E-002
 592.00,6.0479E-002
 592.50,6.0587E-002
 593.00,6.0664E-002
 593.50,6.0654E-002
 594.00,6.0669E-002
 594.50,6.0535E-002
 595.00,6.0519E-002
 595.50,6.0370E-002
 596.00,6.0221E-002
 596.50,6.0177E-002
 597.00,6.0114E-002
 597.50,6.0120E-002
 598.00,6.0079E-002
 598.50,6.0061E-002
 599.00,5.9957E-002
 599.50,5.9897E-002
 600.00,5.9849E-002
 600.50,5.9748E-002
 601.00,5.9672E-002
 601.50,5.9452E-002
 602.00,5.9361E-002
 602.50,5.9218E-002
 603.00,5.9150E-002
 603.50,5.9035E-002
 604.00,5.8915E-002
 604.50,5.8743E-002
 605.00,5.8544E-002
 605.50,5.8342E-002
 606.00,5.8232E-002
 606.50,5.8169E-002
 607.00,5.8149E-002
 607.50,5.7917E-002
 608.00,5.7697E-002
 608.50,5.7455E-002
 609.00,5.7387E-002
 609.50,5.7432E-002
 610.00,5.7402E-002
 610.50,5.7233E-002
 611.00,5.6969E-002
 611.50,5.6812E-002
 612.00,5.6664E-002
 612.50,5.6389E-002
 613.00,5.6153E-002
 613.50,5.6009E-002
 614.00,5.5996E-002
 614.50,5.5738E-002
 615.00,5.5329E-002
 615.50,5.5011E-002
 616.00,5.4778E-002
 616.50,5.4640E-002
 617.00,5.4342E-002
 617.50,5.4100E-002
 618.00,5.3868E-002
 618.50,5.3634E-002
 619.00,5.3254E-002
 619.50,5.2923E-002
 620.00,5.2631E-002
 620.50,5.2523E-002
 621.00,5.2435E-002
 621.50,5.2372E-002
 622.00,5.2139E-002
 622.50,5.1774E-002
 623.00,5.1290E-002
 623.50,5.1071E-002
 624.00,5.0795E-002
 624.50,5.0507E-002
 625.00,5.0160E-002
 625.50,4.9969E-002
 626.00,4.9733E-002
 626.50,4.9403E-002
 627.00,4.9009E-002
 627.50,4.8723E-002
 628.00,4.8478E-002
 628.50,4.8255E-002
 629.00,4.8047E-002
 629.50,4.7715E-002
 630.00,4.7374E-002
 630.50,4.7030E-002
 631.00,4.6781E-002
 631.50,4.6499E-002
 632.00,4.6171E-002
 632.50,4.5886E-002
 633.00,4.5529E-002
 633.50,4.5181E-002
 634.00,4.4818E-002
 634.50,4.4542E-002
 635.00,4.4244E-002
 635.50,4.3940E-002
 636.00,4.3542E-002
 636.50,4.3180E-002
 637.00,4.2909E-002
 637.50,4.2716E-002
 638.00,4.2499E-002
 638.50,4.2256E-002
 639.00,4.1886E-002
 639.50,4.1492E-002
 640.00,4.1058E-002
 640.50,4.0708E-002
 641.00,4.0443E-002
 641.50,4.0154E-002
 642.00,3.9872E-002
 642.50,3.9571E-002
 643.00,3.9261E-002
 643.50,3.8944E-002
 644.00,3.8556E-002
 644.50,3.8122E-002
 645.00,3.7730E-002
 645.50,3.7436E-002
 646.00,3.7151E-002
 646.50,3.6870E-002
 647.00,3.6591E-002
 647.50,3.6356E-002
 648.00,3.6092E-002
 648.50,3.5762E-002
 649.00,3.5391E-002
 649.50,3.4917E-002
 650.00,3.4517E-002
 650.50,3.4244E-002
 651.00,3.3968E-002
 651.50,3.3629E-002
 652.00,3.3142E-002
 652.50,3.2758E-002
 653.00,3.2458E-002
 653.50,3.2177E-002
 654.00,3.1812E-002
 654.50,3.1402E-002
 655.00,3.1152E-002
 655.50,3.0971E-002
 656.00,3.0704E-002
 656.50,3.0328E-002
 657.00,2.9863E-002
 657.50,2.9467E-002
 658.00,2.9088E-002
 658.50,2.8829E-002
 659.00,2.8595E-002
 659.50,2.8267E-002
 660.00,2.7918E-002
 660.50,2.7629E-002
 661.00,2.7431E-002
 661.50,2.7252E-002
 662.00,2.7013E-002
 662.50,2.6705E-002
 663.00,2.6312E-002
 663.50,2.5881E-002
 664.00,2.5485E-002
 664.50,2.5192E-002
 665.00,2.4907E-002
 665.50,2.4668E-002
 666.00,2.4425E-002
 666.50,2.4177E-002
 667.00,2.3889E-002
 667.50,2.3577E-002
 668.00,2.3240E-002
 668.50,2.2943E-002
 669.00,2.2678E-002
 669.50,2.2493E-002
 670.00,2.2285E-002
 670.50,2.2008E-002
 671.00,2.1654E-002
 671.50,2.1299E-002
 672.00,2.1013E-002
 672.50,2.0779E-002
 673.00,2.0535E-002
 673.50,2.0249E-002
 674.00,2.0012E-002
 674.50,1.9811E-002
 675.00,1.9627E-002
 675.50,1.9427E-002
 676.00,1.9175E-002
 676.50,1.8951E-002
 677.00,1.8685E-002
 677.50,1.8396E-002
 678.00,1.8103E-002
 678.50,1.7823E-002
 679.00,1.7563E-002
 679.50,1.7288E-002
 680.00,1.7087E-002
 680.50,1.6907E-002
 681.00,1.6737E-002
 681.50,1.6597E-002
 682.00,1.6459E-002
 682.50,1.6233E-002
 683.00,1.6011E-002
 683.50,1.5868E-002
 684.00,1.5784E-002
 684.50,1.5643E-002
 685.00,1.5439E-002
 685.50,1.5235E-002
 686.00,1.4982E-002
 686.50,1.4688E-002
 687.00,1.4431E-002
 687.50,1.4201E-002
 688.00,1.3969E-002
 688.50,1.3757E-002
 689.00,1.3563E-002
 689.50,1.3429E-002
 690.00,1.3266E-002
 690.50,1.3091E-002
 691.00,1.2931E-002
 691.50,1.2715E-002
 692.00,1.2532E-002
 692.50,1.2289E-002
 693.00,1.2111E-002
 693.50,1.1983E-002
 694.00,1.1883E-002
 694.50,1.1741E-002
 695.00,1.1559E-002
 695.50,1.1423E-002
 696.00,1.1242E-002
 696.50,1.1049E-002
 697.00,1.0909E-002
 697.50,1.0785E-002
 698.00,1.0668E-002
 698.50,1.0377E-002
 699.00,1.0164E-002
 699.50,9.9007E-003
 700.00,9.7935E-003
 700.50,9.6858E-003
 701.00,9.6054E-003
 701.50,9.5481E-003
 702.00,9.4615E-003
 702.50,9.3594E-003
 703.00,9.1465E-003
 703.50,8.9207E-003
 704.00,8.7058E-003
 704.50,8.6411E-003
 705.00,8.6526E-003
 705.50,8.5668E-003
 706.00,8.3652E-003
 706.50,8.1282E-003
 707.00,7.9788E-003
 707.50,7.8488E-003
 708.00,7.7375E-003
 708.50,7.6700E-003
 709.00,7.5381E-003
 709.50,7.3856E-003
 710.00,7.2351E-003
 710.50,7.1858E-003
 711.00,7.1567E-003
 711.50,7.0345E-003
 712.00,6.8897E-003
 712.50,6.7210E-003
 713.00,6.5733E-003
 713.50,6.4984E-003
 714.00,6.5092E-003
 714.50,6.6137E-003
 715.00,6.5282E-003
 715.50,6.3244E-003
 716.00,6.1253E-003
 716.50,6.0469E-003
 717.00,5.9886E-003
 717.50,5.9844E-003
 718.00,5.8430E-003
 718.50,5.5986E-003
 719.00,5.3911E-003
 719.50,5.4209E-003
 720.00,5.4788E-003
 720.50,5.3514E-003
 721.00,5.2129E-003
 721.50,5.0267E-003
 722.00,4.9701E-003
 722.50,4.8499E-003
 723.00,4.8752E-003
 723.50,4.9234E-003
 724.00,4.9242E-003
 724.50,4.8267E-003
 725.00,4.5997E-003
 725.50,4.4456E-003
 726.00,4.2886E-003
 726.50,4.2711E-003
 727.00,4.1634E-003
 727.50,4.1434E-003
 728.00,4.1406E-003
 728.50,4.1110E-003
 729.00,3.9745E-003
 729.50,3.8460E-003
 730.00,3.8446E-003
 730.50,3.7399E-003
 731.00,3.6680E-003
 731.50,3.6378E-003
 732.00,3.6328E-003
 732.50,3.5773E-003
 733.00,3.4107E-003
 733.50,3.4023E-003
 734.00,3.3593E-003
 734.50,3.3370E-003
 735.00,3.2529E-003
 735.50,3.1880E-003
 736.00,3.1153E-003
 736.50,3.0331E-003
 737.00,3.0326E-003
 737.50,2.9672E-003
 738.00,2.8623E-003
 738.50,2.7720E-003
 739.00,2.7685E-003
 739.50,2.7765E-003
 740.00,2.8229E-003
 740.50,2.7829E-003
 741.00,2.7474E-003
 741.50,2.6756E-003
 742.00,2.6032E-003
 742.50,2.4370E-003
 743.00,2.3157E-003
 743.50,2.3054E-003
 744.00,2.2538E-003
 744.50,2.2006E-003
 745.00,2.2468E-003
 745.50,2.3131E-003
 746.00,2.2457E-003
 746.50,2.0373E-003
 747.00,1.9645E-003
 747.50,1.9583E-003
 748.00,1.9879E-003
 748.50,1.9867E-003
 749.00,1.9430E-003
 749.50,1.7828E-003
 750.00,1.6734E-003
 750.50,1.5196E-003
 751.00,1.3583E-003
 751.50,1.3581E-003
 752.00,1.5534E-003
 752.50,1.5930E-003
 753.00,1.4389E-003
 753.50,1.3670E-003
 754.00,1.3006E-003
 754.50,1.2024E-003
 755.00,1.1051E-003
 755.50,1.0678E-003
 756.00,1.1515E-003
 756.50,1.1516E-003
 757.00,1.1634E-003
 757.50,1.0299E-003
 758.00,9.4583E-004
 758.50,9.5723E-004
 759.00,1.0106E-003
 759.50,9.5708E-004
 760.00,8.5964E-004
 760.50,8.5250E-004
 761.00,7.8056E-004
 761.50,6.8597E-004
 762.00,6.2956E-004
 762.50,7.5724E-004
 763.00,8.3118E-004
 763.50,8.6179E-004
 764.00,8.8027E-004
 764.50,8.3604E-004
 765.00,7.5272E-004
 765.50,6.4370E-004
 766.00,5.9648E-004
 766.50,5.7015E-004
 767.00,6.0647E-004
 767.50,5.6866E-004
 768.00,5.0118E-004
 768.50,4.7116E-004
 769.00,4.6110E-004
 769.50,4.8719E-004
 770.00,5.3409E-004
 770.50,6.7622E-004
 771.00,5.5980E-004
 771.50,3.8430E-004
 772.00,2.1692E-004
 772.50,4.3526E-005
 773.00,9.8651E-006
 773.50,1.2611E-004
 774.00,2.1283E-004
 774.50,1.9220E-004
 775.00,1.9604E-004
 775.50,1.7194E-004
 776.00,2.1876E-005
 776.50,0.0000E+000
 777.00,0.0000E+000
 777.50,0.0000E+000
 778.00,0.0000E+000
 778.50,0.0000E+000
 779.00,0.0000E+000
 779.50,0.0000E+000
 780.00,0.0000E+000
 780.50,7.9680E-005
 781.00,2.1597E-004
 781.50,1.7801E-004
 782.00,0.0000E+000
 782.50,0.0000E+000
 783.00,0.0000E+000
 783.50,0.0000E+000
 784.00,0.0000E+000
 784.50,0.0000E+000
 785.00,0.0000E+000
 785.50,0.0000E+000
 786.00,0.0000E+000
 786.50,0.0000E+000
 787.00,0.0000E+000
 787.50,0.0000E+000
 788.00,0.0000E+000
 788.50,0.0000E+000
 789.00,0.0000E+000
 789.50,0.0000E+000
 790.00,0.0000E+000
 790.50,0.0000E+000
 791.00,0.0000E+000
 791.50,0.0000E+000
 792.00,0.0000E+000
 792.50,0.0000E+000
 793.00,0.0000E+000
 793.50,0.0000E+000
 794.00,0.0000E+000
 794.50,0.0000E+000
 795.00,0.0000E+000
 795.50,0.0000E+000
 796.00,0.0000E+000
 796.50,0.0000E+000
 797.00,0.0000E+000
 797.50,0.0000E+000
 798.00,0.0000E+000
 798.50,0.0000E+000
 799.00,0.0000E+000
 799.50,0.0000E+000
 800.00,0.0000E+000
 800.50,0.0000E+000
 801.00,0.0000E+000
 801.50,0.0000E+000
 802.00,0.0000E+000
 802.50,0.0000E+000
 803.00,0.0000E+000
 803.50,0.0000E+000
 804.00,0.0000E+000
 804.50,0.0000E+000
 805.00,0.0000E+000
 805.50,0.0000E+000
 806.00,0.0000E+000
 806.50,0.0000E+000
 807.00,0.0000E+000
 807.50,0.0000E+000
 808.00,0.0000E+000
 808.50,0.0000E+000
 809.00,0.0000E+000
 809.50,0.0000E+000
 810.00,0.0000E+000
 810.50,0.0000E+000
 811.00,0.0000E+000
 811.50,0.0000E+000
 812.00,0.0000E+000
 812.50,0.0000E+000
 813.00,0.0000E+000
 813.50,0.0000E+000
 814.00,0.0000E+000
 814.50,0.0000E+000
 815.00,0.0000E+000
 815.50,0.0000E+000
 816.00,0.0000E+000
 816.50,0.0000E+000
 817.00,0.0000E+000
 817.50,0.0000E+000
 818.00,0.0000E+000
 818.50,0.0000E+000
 819.00,0.0000E+000
 819.50,0.0000E+000
 820.00,0.0000E+000
 820.50,0.0000E+000
 821.00,0.0000E+000
 821.50,0.0000E+000
 822.00,0.0000E+000
 822.50,0.0000E+000
 823.00,0.0000E+000
 823.50,0.0000E+000
 824.00,0.0000E+000
 824.50,0.0000E+000
 825.00,0.0000E+000
 825.50,0.0000E+000
 826.00,0.0000E+000
 826.50,0.0000E+000
 827.00,0.0000E+000
 827.50,0.0000E+000
 828.00,0.0000E+000
 828.50,0.0000E+000
 829.00,0.0000E+000
 829.50,0.0000E+000
 830.00,0.0000E+000
 830.50,0.0000E+000
 831.00,0.0000E+000
 831.50,0.0000E+000
 832.00,0.0000E+000
 832.50,0.0000E+000
 833.00,0.0000E+000
 833.50,0.0000E+000
 834.00,0.0000E+000
 834.50,0.0000E+000
 835.00,0.0000E+000
 835.50,0.0000E+000
 836.00,0.0000E+000
 836.50,0.0000E+000
 837.00,0.0000E+000
 837.50,0.0000E+000
 838.00,0.0000E+000
 838.50,0.0000E+000
 839.00,0.0000E+000
 839.50,0.0000E+000
 840.00,0.0000E+000
 840.50,0.0000E+000
 841.00,0.0000E+000
 841.50,0.0000E+000
 842.00,0.0000E+000
 842.50,0.0000E+000
 843.00,0.0000E+000
 843.50,0.0000E+000
 844.00,0.0000E+000
 844.50,0.0000E+000
 845.00,0.0000E+000
 845.50,0.0000E+000
 846.00,0.0000E+000
 846.50,0.0000E+000
 847.00,0.0000E+000
 847.50,0.0000E+000
 848.00,0.0000E+000
 848.50,0.0000E+000
 849.00,0.0000E+000
 849.50,0.0000E+000
 850.00,0.0000E+000
 850.50,0.0000E+000
 851.00,0.0000E+000
 851.50,0.0000E+000
 852.00,0.0000E+000
 852.50,0.0000E+000
 853.00,0.0000E+000
 853.50,0.0000E+000
 854.00,0.0000E+000
 854.50,0.0000E+000
 855.00,0.0000E+000
 855.50,0.0000E+000
 856.00,0.0000E+000
 856.50,0.0000E+000
 857.00,0.0000E+000
 857.50,0.0000E+000
 858.00,0.0000E+000
 858.50,0.0000E+000
 859.00,0.0000E+000
 859.50,0.0000E+000
 860.00,0.0000E+000
 860.50,0.0000E+000
 861.00,0.0000E+000
 861.50,0.0000E+000
 862.00,0.0000E+000
 862.50,0.0000E+000
 863.00,0.0000E+000
 863.50,0.0000E+000
 864.00,0.0000E+000
 864.50,0.0000E+000
 865.00,0.0000E+000
 865.50,0.0000E+000
 866.00,0.0000E+000
 866.50,0.0000E+000
 867.00,0.0000E+000
 867.50,0.0000E+000
 868.00,0.0000E+000
 868.50,0.0000E+000
 869.00,0.0000E+000
 869.50,0.0000E+000
 870.00,0.0000E+000
 870.50,0.0000E+000
 871.00,0.0000E+000
 871.50,0.0000E+000
 872.00,0.0000E+000
 872.50,0.0000E+000
 873.00,0.0000E+000
 873.50,0.0000E+000
 874.00,0.0000E+000
 874.50,0.0000E+000
 875.00,0.0000E+000
 875.50,0.0000E+000
 876.00,0.0000E+000
 876.50,0.0000E+000
 877.00,0.0000E+000
 877.50,0.0000E+000
 878.00,0.0000E+000
 878.50,0.0000E+000
 879.00,0.0000E+000
 879.50,0.0000E+000
 880.00,0.0000E+000
 880.50,0.0000E+000
 881.00,0.0000E+000
 881.50,0.0000E+000
 882.00,0.0000E+000
 882.50,0.0000E+000
 883.00,0.0000E+000
 883.50,0.0000E+000
 884.00,0.0000E+000
 884.50,0.0000E+000
 885.00,0.0000E+000
 885.50,0.0000E+000
 886.00,0.0000E+000
 886.50,0.0000E+000
 887.00,0.0000E+000
 887.50,0.0000E+000
 888.00,0.0000E+000
 888.50,0.0000E+000
 889.00,0.0000E+000
 889.50,0.0000E+000
 890.00,0.0000E+000
 890.50,0.0000E+000
 891.00,0.0000E+000
 891.50,0.0000E+000
 892.00,0.0000E+000
 892.50,0.0000E+000
 893.00,0.0000E+000
 893.50,0.0000E+000
 894.00,0.0000E+000
 894.50,0.0000E+000
 895.00,0.0000E+000
 895.50,0.0000E+000
 896.00,0.0000E+000
 896.50,0.0000E+000
 897.00,0.0000E+000
 897.50,0.0000E+000
 898.00,0.0000E+000
 898.50,0.0000E+000
 899.00,0.0000E+000
 899.50,0.0000E+000

