wavelength.intensity
273.00.0.0000E+000
273.50.0.0000E+000
274.00.0.0000E+000
274.50.0.0000E+000
275.00.0.0000E+000
275.50.0.0000E+000
276.00.0.0000E+000
276.50.0.0000E+000
277.00.0.0000E+000
277.50.0.0000E+000
278.00.0.0000E+000
278.50.0.0000E+000
279.00.0.0000E+000
279.50.0.0000E+000
280.00.0.0000E+000
280.50.0.0000E+000
281.00.0.0000E+000
281.50.0.0000E+000
282.00.0.0000E+000
282.50.0.0000E+000
283.00.0.0000E+000
283.50.0.0000E+000
284.00.0.0000E+000
284.50.0.0000E+000
285.00.0.0000E+000
285.50.0.0000E+000
286.00.0.0000E+000
286.50.0.0000E+000
287.00.0.0000E+000
287.50.0.0000E+000
288.00.0.0000E+000
288.50.0.0000E+000
289.00.0.0000E+000
289.50.0.0000E+000
290.00.0.0000E+000
290.50.0.0000E+000
291.00.0.0000E+000
291.50.0.0000E+000
292.00.0.0000E+000
292.50.0.0000E+000
293.00.0.0000E+000
293.50.0.0000E+000
294.00.0.0000E+000
294.50.0.0000E+000
295.00.0.0000E+000
295.50.0.0000E+000
296.00.0.0000E+000
296.50.0.0000E+000
297.00.0.0000E+000
297.50.0.0000E+000
298.00.0.0000E+000
298.50.0.0000E+000
299.00.0.0000E+000
299.50.0.0000E+000
300.00.1.3620E-005
300.50.4.4904E-005
301.00.4.6284E-005
301.50.1.8398E-005
302.00.0.0000E+000
302.50.2.3166E-005
303.00.6.9428E-005
303.50.1.3020E-004
304.00.1.5292E-004
304.50.1.1779E-004
305.00.7.9127E-005
305.50.3.7613E-005
306.00.0.0000E+000
306.50.0.0000E+000
307.00.5.1767E-006
307.50.6.0296E-007
308.00.2.8509E-006
308.50.5.9633E-006
309.00.1.0900E-007
309.50.0.0000E+000
310.00.0.0000E+000
310.50.0.0000E+000
311.00.3.9490E-005
311.50.9.3978E-005
312.00.8.8463E-005
312.50.3.6185E-005
313.00.0.0000E+000
313.50.0.0000E+000
314.00.0.0000E+000
314.50.1.0141E-005
315.00.1.4224E-005
315.50.0.0000E+000
316.00.0.0000E+000
316.50.0.0000E+000
317.00.0.0000E+000
317.50.0.0000E+000
318.00.0.0000E+000
318.50.0.0000E+000
319.00.0.0000E+000
319.50.0.0000E+000
320.00.0.0000E+000
320.50.0.0000E+000
321.00.0.0000E+000
321.50.0.0000E+000
322.00.0.0000E+000
322.50.0.0000E+000
323.00.0.0000E+000
323.50.0.0000E+000
324.00.0.0000E+000
324.50.0.0000E+000
325.00.0.0000E+000
325.50.1.5452E-005
326.00.7.2623E-005
326.50.9.2652E-005
327.00.9.7122E-005
327.50.7.5205E-005
328.00.3.3081E-005
328.50.1.0769E-005
329.00.0.0000E+000
329.50.0.0000E+000
330.00.0.0000E+000
330.50.0.0000E+000
331.00.0.0000E+000
331.50.0.0000E+000
332.00.0.0000E+000
332.50.1.7490E-005
333.00.5.5995E-005
333.50.6.5052E-005
334.00.6.3235E-005
334.50.3.9770E-005
335.00.0.0000E+000
335.50.0.0000E+000
336.00.0.0000E+000
336.50.0.0000E+000
337.00.0.0000E+000
337.50.0.0000E+000
338.00.0.0000E+000
338.50.0.0000E+000
339.00.0.0000E+000
339.50.0.0000E+000
340.00.0.0000E+000
340.50.0.0000E+000
341.00.0.0000E+000
341.50.0.0000E+000
342.00.0.0000E+000
342.50.2.5767E-005
343.00.6.4256E-005
343.50.1.9204E-005
344.00.0.0000E+000
344.50.0.0000E+000
345.00.1.7445E-005
345.50.3.9306E-005
346.00.3.7719E-005
346.50.5.2251E-005
347.00.3.9911E-005
347.50.6.5277E-005
348.00.1.1517E-004
348.50.1.1392E-004
349.00.1.3772E-004
349.50.9.1887E-005
350.00.1.4887E-005
350.50.0.0000E+000
351.00.0.0000E+000
351.50.0.0000E+000
352.00.0.0000E+000
352.50.4.5354E-007
353.00.3.6070E-005
353.50.8.6331E-005
354.00.7.3641E-005
354.50.3.3179E-005
355.00.4.0643E-005
355.50.2.3711E-005
356.00.1.3337E-005
356.50.1.8735E-006
357.00.2.2273E-005
357.50.5.3299E-005
358.00.8.6059E-005
358.50.4.9580E-005
359.00.0.0000E+000
359.50.0.0000E+000
360.00.4.9943E-006
360.50.5.7990E-005
361.00.9.2398E-005
361.50.4.3516E-005
362.00.3.6800E-006
362.50.0.0000E+000
363.00.7.8404E-006
363.50.5.3659E-005
364.00.8.6890E-005
364.50.6.7140E-005
365.00.8.6449E-005
365.50.7.4560E-005
366.00.5.9842E-005
366.50.1.9873E-005
367.00.0.0000E+000
367.50.0.0000E+000
368.00.0.0000E+000
368.50.0.0000E+000
369.00.0.0000E+000
369.50.0.0000E+000
370.00.0.0000E+000
370.50.0.0000E+000
371.00.0.0000E+000
371.50.0.0000E+000
372.00.1.2719E-005
372.50.2.7163E-005
373.00.1.7757E-005
373.50.3.3922E-006
374.00.0.0000E+000
374.50.0.0000E+000
375.00.0.0000E+000
375.50.3.7369E-006
376.00.4.0641E-005
376.50.1.8569E-005
377.00.0.0000E+000
377.50.0.0000E+000
378.00.0.0000E+000
378.50.0.0000E+000
379.00.0.0000E+000
379.50.0.0000E+000
380.00.0.0000E+000
380.50.0.0000E+000
381.00.0.0000E+000
381.50.2.6102E-005
382.00.7.2544E-005
382.50.4.8344E-005
383.00.4.3824E-005
383.50.3.7421E-005
384.00.7.0031E-005
384.50.1.0171E-004
385.00.1.0449E-004
385.50.9.2882E-005
386.00.2.5877E-005
386.50.0.0000E+000
387.00.0.0000E+000
387.50.0.0000E+000
388.00.0.0000E+000
388.50.0.0000E+000
389.00.0.0000E+000
389.50.2.4898E-005
390.00.3.1964E-005
390.50.0.0000E+000
391.00.0.0000E+000
391.50.1.1446E-005
392.00.1.4993E-005
392.50.0.0000E+000
393.00.0.0000E+000
393.50.0.0000E+000
394.00.0.0000E+000
394.50.0.0000E+000
395.00.0.0000E+000
395.50.1.5727E-005
396.00.8.8753E-005
396.50.1.1534E-004
397.00.1.0908E-004
397.50.3.6182E-005
398.00.8.3919E-006
398.50.2.4347E-005
399.00.3.6765E-005
399.50.6.5372E-005
400.00.8.0066E-005
400.50.7.8700E-005
401.00.9.9567E-005
401.50.1.0472E-004
402.00.1.1366E-004
402.50.1.4360E-004
403.00.1.5768E-004
403.50.1.6612E-004
404.00.1.7435E-004
404.50.1.5240E-004
405.00.1.3394E-004
405.50.1.1931E-004
406.00.1.5360E-004
406.50.1.8629E-004
407.00.1.8206E-004
407.50.1.7960E-004
408.00.1.6132E-004
408.50.2.1904E-004
409.00.2.7652E-004
409.50.2.9287E-004
410.00.2.7621E-004
410.50.1.8958E-004
411.00.1.5768E-004
411.50.1.3385E-004
412.00.1.4189E-004
412.50.1.6963E-004
413.00.2.2667E-004
413.50.2.5976E-004
414.00.2.9530E-004
414.50.3.0007E-004
415.00.3.3110E-004
415.50.4.3113E-004
416.00.5.5017E-004
416.50.6.4090E-004
417.00.6.9057E-004
417.50.7.1850E-004
418.00.7.6486E-004
418.50.8.1724E-004
419.00.8.5648E-004
419.50.8.8969E-004
420.00.9.4981E-004
420.50.1.0273E-003
421.00.1.1013E-003
421.50.1.1718E-003
422.00.1.2181E-003
422.50.1.2646E-003
423.00.1.3396E-003
423.50.1.4034E-003
424.00.1.4760E-003
424.50.1.5600E-003
425.00.1.6287E-003
425.50.1.6995E-003
426.00.1.7709E-003
426.50.1.8654E-003
427.00.1.9632E-003
427.50.2.0825E-003
428.00.2.1753E-003
428.50.2.2930E-003
429.00.2.3855E-003
429.50.2.5144E-003
430.00.2.6218E-003
430.50.2.7193E-003
431.00.2.8041E-003
431.50.2.8808E-003
432.00.2.9916E-003
432.50.3.1614E-003
433.00.3.3048E-003
433.50.3.4740E-003
434.00.3.6352E-003
434.50.3.7653E-003
435.00.3.9237E-003
435.50.4.0230E-003
436.00.4.1916E-003
436.50.4.3566E-003
437.00.4.5988E-003
437.50.4.8341E-003
438.00.5.0209E-003
438.50.5.2167E-003
439.00.5.4111E-003
439.50.5.6531E-003
440.00.5.8735E-003
440.50.6.1324E-003
441.00.6.3927E-003
441.50.6.7229E-003
442.00.7.0608E-003
442.50.7.3737E-003
443.00.7.6530E-003
443.50.7.9314E-003
444.00.8.1990E-003
444.50.8.4897E-003
445.00.8.7988E-003
445.50.9.1904E-003
446.00.9.5421E-003
446.50.9.7890E-003
447.00.9.9490E-003
447.50.1.0060E-002
448.00.1.0230E-002
448.50.1.0403E-002
449.00.1.0577E-002
449.50.1.0729E-002
450.00.1.0835E-002
450.50.1.0858E-002
451.00.1.0820E-002
451.50.1.0697E-002
452.00.1.0558E-002
452.50.1.0400E-002
453.00.1.0199E-002
453.50.1.0002E-002
454.00.9.8440E-003
454.50.9.6487E-003
455.00.9.4583E-003
455.50.9.2429E-003
456.00.8.9992E-003
456.50.8.8059E-003
457.00.8.5435E-003
457.50.8.2795E-003
458.00.8.0275E-003
458.50.7.8131E-003
459.00.7.5884E-003
459.50.7.3878E-003
460.00.7.2011E-003
460.50.7.0538E-003
461.00.6.9422E-003
461.50.6.7820E-003
462.00.6.6078E-003
462.50.6.4475E-003
463.00.6.3123E-003
463.50.6.2394E-003
464.00.6.1463E-003
464.50.6.0607E-003
465.00.5.9840E-003
465.50.5.8992E-003
466.00.5.8295E-003
466.50.5.7187E-003
467.00.5.5488E-003
467.50.5.3756E-003
468.00.5.2384E-003
468.50.5.1498E-003
469.00.5.1019E-003
469.50.5.0725E-003
470.00.5.0137E-003
470.50.4.9626E-003
471.00.4.8901E-003
471.50.4.8399E-003
472.00.4.7487E-003
472.50.4.6301E-003
473.00.4.5344E-003
473.50.4.4513E-003
474.00.4.4109E-003
474.50.4.4097E-003
475.00.4.3747E-003
475.50.4.3449E-003
476.00.4.2947E-003
476.50.4.2598E-003
477.00.4.2851E-003
477.50.4.3089E-003
478.00.4.3212E-003
478.50.4.2794E-003
479.00.4.2272E-003
479.50.4.2143E-003
480.00.4.1748E-003
480.50.4.1631E-003
481.00.4.1921E-003
481.50.4.2180E-003
482.00.4.2637E-003
482.50.4.3115E-003
483.00.4.3226E-003
483.50.4.3691E-003
484.00.4.4066E-003
484.50.4.4586E-003
485.00.4.5413E-003
485.50.4.6253E-003
486.00.4.6977E-003
486.50.4.7815E-003
487.00.4.8382E-003
487.50.4.8917E-003
488.00.4.9538E-003
488.50.5.0186E-003
489.00.5.1049E-003
489.50.5.1898E-003
490.00.5.2645E-003
490.50.5.3667E-003
491.00.5.4942E-003
491.50.5.6208E-003
492.00.5.7315E-003
492.50.5.8186E-003
493.00.5.8937E-003
493.50.5.9822E-003
494.00.6.0865E-003
494.50.6.2062E-003
495.00.6.3384E-003
495.50.6.4778E-003
496.00.6.6308E-003
496.50.6.7887E-003
497.00.6.9504E-003
497.50.7.0762E-003
498.00.7.2136E-003
498.50.7.3351E-003
499.00.7.4880E-003
499.50.7.6472E-003
500.00.7.7980E-003
500.50.7.9326E-003
501.00.8.1095E-003
501.50.8.2684E-003
502.00.8.4332E-003
502.50.8.5655E-003
503.00.8.7261E-003
503.50.8.8683E-003
504.00.9.0579E-003
504.50.9.2284E-003
505.00.9.4024E-003
505.50.9.5818E-003
506.00.9.7248E-003
506.50.9.8711E-003
507.00.1.0015E-002
507.50.1.0154E-002
508.00.1.0245E-002
508.50.1.0354E-002
509.00.1.0486E-002
509.50.1.0663E-002
510.00.1.0869E-002
510.50.1.1032E-002
511.00.1.1206E-002
511.50.1.1373E-002
512.00.1.1558E-002
512.50.1.1744E-002
513.00.1.1898E-002
513.50.1.2018E-002
514.00.1.2112E-002
514.50.1.2214E-002
515.00.1.2365E-002
515.50.1.2516E-002
516.00.1.2685E-002
516.50.1.2833E-002
517.00.1.2997E-002
517.50.1.3157E-002
518.00.1.3297E-002
518.50.1.3430E-002
519.00.1.3527E-002
519.50.1.3633E-002
520.00.1.3747E-002
520.50.1.3895E-002
521.00.1.4038E-002
521.50.1.4214E-002
522.00.1.4366E-002
522.50.1.4448E-002
523.00.1.4530E-002
523.50.1.4633E-002
524.00.1.4779E-002
524.50.1.4979E-002
525.00.1.5148E-002
525.50.1.5295E-002
526.00.1.5421E-002
526.50.1.5537E-002
527.00.1.5652E-002
527.50.1.5802E-002
528.00.1.5909E-002
528.50.1.6018E-002
529.00.1.6131E-002
529.50.1.6231E-002
530.00.1.6327E-002
530.50.1.6400E-002
531.00.1.6485E-002
531.50.1.6623E-002
532.00.1.6759E-002
532.50.1.6887E-002
533.00.1.7010E-002
533.50.1.7155E-002
534.00.1.7296E-002
534.50.1.7386E-002
535.00.1.7470E-002
535.50.1.7602E-002
536.00.1.7765E-002
536.50.1.7944E-002
537.00.1.8077E-002
537.50.1.8192E-002
538.00.1.8299E-002
538.50.1.8378E-002
539.00.1.8518E-002
539.50.1.8654E-002
540.00.1.8793E-002
540.50.1.8977E-002
541.00.1.9144E-002
541.50.1.9318E-002
542.00.1.9465E-002
542.50.1.9548E-002
543.00.1.9625E-002
543.50.1.9715E-002
544.00.1.9822E-002
544.50.1.9940E-002
545.00.2.0037E-002
545.50.2.0150E-002
546.00.2.0344E-002
546.50.2.0540E-002
547.00.2.0702E-002
547.50.2.0804E-002
548.00.2.0922E-002
548.50.2.1031E-002
549.00.2.1153E-002
549.50.2.1232E-002
550.00.2.1369E-002
550.50.2.1561E-002
551.00.2.1766E-002
551.50.2.1969E-002
552.00.2.2110E-002
552.50.2.2259E-002
553.00.2.2367E-002
553.50.2.2489E-002
554.00.2.2650E-002
554.50.2.2811E-002
555.00.2.2946E-002
555.50.2.3044E-002
556.00.2.3186E-002
556.50.2.3375E-002
557.00.2.3576E-002
557.50.2.3720E-002
558.00.2.3890E-002
558.50.2.4083E-002
559.00.2.4293E-002
559.50.2.4508E-002
560.00.2.4667E-002
560.50.2.4810E-002
561.00.2.4947E-002
561.50.2.5072E-002
562.00.2.5183E-002
562.50.2.5306E-002
563.00.2.5484E-002
563.50.2.5703E-002
564.00.2.5923E-002
564.50.2.6116E-002
565.00.2.6254E-002
565.50.2.6411E-002
566.00.2.6575E-002
566.50.2.6719E-002
567.00.2.6857E-002
567.50.2.6966E-002
568.00.2.7153E-002
568.50.2.7354E-002
569.00.2.7538E-002
569.50.2.7670E-002
570.00.2.7811E-002
570.50.2.7988E-002
571.00.2.8182E-002
571.50.2.8360E-002
572.00.2.8486E-002
572.50.2.8615E-002
573.00.2.8798E-002
573.50.2.9026E-002
574.00.2.9224E-002
574.50.2.9414E-002
575.00.2.9568E-002
575.50.2.9731E-002
576.00.2.9918E-002
576.50.3.0112E-002
577.00.3.0347E-002
577.50.3.0573E-002
578.00.3.0744E-002
578.50.3.0916E-002
579.00.3.1081E-002
579.50.3.1303E-002
580.00.3.1465E-002
580.50.3.1633E-002
581.00.3.1726E-002
581.50.3.1877E-002
582.00.3.2061E-002
582.50.3.2257E-002
583.00.3.2500E-002
583.50.3.2684E-002
584.00.3.2824E-002
584.50.3.2924E-002
585.00.3.3024E-002
585.50.3.3228E-002
586.00.3.3436E-002
586.50.3.3643E-002
587.00.3.3810E-002
587.50.3.4008E-002
588.00.3.4151E-002
588.50.3.4292E-002
589.00.3.4312E-002
589.50.3.4345E-002
590.00.3.4475E-002
590.50.3.4635E-002
591.00.3.4865E-002
591.50.3.5027E-002
592.00.3.5157E-002
592.50.3.5267E-002
593.00.3.5415E-002
593.50.3.5496E-002
594.00.3.5629E-002
594.50.3.5704E-002
595.00.3.5868E-002
595.50.3.5967E-002
596.00.3.6027E-002
596.50.3.6096E-002
597.00.3.6160E-002
597.50.3.6196E-002
598.00.3.6171E-002
598.50.3.6259E-002
599.00.3.6351E-002
599.50.3.6513E-002
600.00.3.6575E-002
600.50.3.6609E-002
601.00.3.6666E-002
601.50.3.6677E-002
602.00.3.6751E-002
602.50.3.6825E-002
603.00.3.6869E-002
603.50.3.6898E-002
604.00.3.6941E-002
604.50.3.6922E-002
605.00.3.6848E-002
605.50.3.6692E-002
606.00.3.6674E-002
606.50.3.6751E-002
607.00.3.6787E-002
607.50.3.6661E-002
608.00.3.6594E-002
608.50.3.6528E-002
609.00.3.6573E-002
609.50.3.6542E-002
610.00.3.6457E-002
610.50.3.6392E-002
611.00.3.6324E-002
611.50.3.6356E-002
612.00.3.6414E-002
612.50.3.6420E-002
613.00.3.6311E-002
613.50.3.6187E-002
614.00.3.6099E-002
614.50.3.6001E-002
615.00.3.5853E-002
615.50.3.5727E-002
616.00.3.5653E-002
616.50.3.5591E-002
617.00.3.5449E-002
617.50.3.5284E-002
618.00.3.5107E-002
618.50.3.4985E-002
619.00.3.4836E-002
619.50.3.4649E-002
620.00.3.4407E-002
620.50.3.4169E-002
621.00.3.4118E-002
621.50.3.4048E-002
622.00.3.4031E-002
622.50.3.3911E-002
623.00.3.3821E-002
623.50.3.3732E-002
624.00.3.3549E-002
624.50.3.3274E-002
625.00.3.2932E-002
625.50.3.2773E-002
626.00.3.2590E-002
626.50.3.2465E-002
627.00.3.2341E-002
627.50.3.2210E-002
628.00.3.2038E-002
628.50.3.1756E-002
629.00.3.1570E-002
629.50.3.1346E-002
630.00.3.1102E-002
630.50.3.0840E-002
631.00.3.0645E-002
631.50.3.0396E-002
632.00.3.0106E-002
632.50.2.9875E-002
633.00.2.9672E-002
633.50.2.9469E-002
634.00.2.9269E-002
634.50.2.9114E-002
635.00.2.8912E-002
635.50.2.8625E-002
636.00.2.8378E-002
636.50.2.8201E-002
637.00.2.8036E-002
637.50.2.7776E-002
638.00.2.7408E-002
638.50.2.7129E-002
639.00.2.6899E-002
639.50.2.6765E-002
640.00.2.6544E-002
640.50.2.6293E-002
641.00.2.6016E-002
641.50.2.5774E-002
642.00.2.5509E-002
642.50.2.5326E-002
643.00.2.5050E-002
643.50.2.4784E-002
644.00.2.4503E-002
644.50.2.4286E-002
645.00.2.4049E-002
645.50.2.3821E-002
646.00.2.3595E-002
646.50.2.3402E-002
647.00.2.3173E-002
647.50.2.2916E-002
648.00.2.2669E-002
648.50.2.2370E-002
649.00.2.2036E-002
649.50.2.1692E-002
650.00.2.1430E-002
650.50.2.1262E-002
651.00.2.1116E-002
651.50.2.0945E-002
652.00.2.0676E-002
652.50.2.0454E-002
653.00.2.0202E-002
653.50.1.9986E-002
654.00.1.9722E-002
654.50.1.9489E-002
655.00.1.9271E-002
655.50.1.9058E-002
656.00.1.8866E-002
656.50.1.8649E-002
657.00.1.8416E-002
657.50.1.8162E-002
658.00.1.7934E-002
658.50.1.7744E-002
659.00.1.7566E-002
659.50.1.7435E-002
660.00.1.7242E-002
660.50.1.6966E-002
661.00.1.6688E-002
661.50.1.6428E-002
662.00.1.6262E-002
662.50.1.6029E-002
663.00.1.5790E-002
663.50.1.5584E-002
664.00.1.5415E-002
664.50.1.5233E-002
665.00.1.5060E-002
665.50.1.4909E-002
666.00.1.4712E-002
666.50.1.4470E-002
667.00.1.4294E-002
667.50.1.4186E-002
668.00.1.4125E-002
668.50.1.3949E-002
669.00.1.3742E-002
669.50.1.3390E-002
670.00.1.3065E-002
670.50.1.2839E-002
671.00.1.2664E-002
671.50.1.2501E-002
672.00.1.2369E-002
672.50.1.2263E-002
673.00.1.2147E-002
673.50.1.1962E-002
674.00.1.1806E-002
674.50.1.1677E-002
675.00.1.1567E-002
675.50.1.1383E-002
676.00.1.1225E-002
676.50.1.1037E-002
677.00.1.0830E-002
677.50.1.0605E-002
678.00.1.0390E-002
678.50.1.0297E-002
679.00.1.0197E-002
679.50.1.0125E-002
680.00.9.9356E-003
680.50.9.7753E-003
681.00.9.6174E-003
681.50.9.4828E-003
682.00.9.3486E-003
682.50.9.1804E-003
683.00.9.0188E-003
683.50.8.9111E-003
684.00.8.8536E-003
684.50.8.7820E-003
685.00.8.6963E-003
685.50.8.5523E-003
686.00.8.3948E-003
686.50.8.2006E-003
687.00.8.0566E-003
687.50.7.9381E-003
688.00.7.8011E-003
688.50.7.7305E-003
689.00.7.7222E-003
689.50.7.6300E-003
690.00.7.4823E-003
690.50.7.3081E-003
691.00.7.2259E-003
691.50.7.1593E-003
692.00.7.0053E-003
692.50.6.8358E-003
693.00.6.7744E-003
693.50.6.7776E-003
694.00.6.7234E-003
694.50.6.5798E-003
695.00.6.4532E-003
695.50.6.4303E-003
696.00.6.3216E-003
696.50.6.2007E-003
697.00.6.0131E-003
697.50.5.8731E-003
698.00.5.7453E-003
698.50.5.6647E-003
699.00.5.5924E-003
699.50.5.4775E-003
700.00.5.4016E-003
700.50.5.4058E-003
701.00.5.3865E-003
701.50.5.2715E-003
702.00.5.1092E-003
702.50.5.0028E-003
703.00.4.9777E-003
703.50.4.9884E-003
704.00.4.9430E-003
704.50.4.7409E-003
705.00.4.5845E-003
705.50.4.4694E-003
706.00.4.4304E-003
706.50.4.3975E-003
707.00.4.4226E-003
707.50.4.3706E-003
708.00.4.2922E-003
708.50.4.1596E-003
709.00.4.0491E-003
709.50.3.8876E-003
710.00.3.8536E-003
710.50.3.8733E-003
711.00.3.8549E-003
711.50.3.7641E-003
712.00.3.6084E-003
712.50.3.5709E-003
713.00.3.5572E-003
713.50.3.6380E-003
714.00.3.5662E-003
714.50.3.4517E-003
715.00.3.3104E-003
715.50.3.2758E-003
716.00.3.2628E-003
716.50.3.3134E-003
717.00.3.2895E-003
717.50.3.1992E-003
718.00.3.1221E-003
718.50.3.0381E-003
719.00.2.9566E-003
719.50.2.8496E-003
720.00.2.8212E-003
720.50.2.7907E-003
721.00.2.7380E-003
721.50.2.6657E-003
722.00.2.5861E-003
722.50.2.5154E-003
723.00.2.5481E-003
723.50.2.5636E-003
724.00.2.5689E-003
724.50.2.4647E-003
725.00.2.3272E-003
725.50.2.2515E-003
726.00.2.2500E-003
726.50.2.2468E-003
727.00.2.1902E-003
727.50.2.2518E-003
728.00.2.3074E-003
728.50.2.2498E-003
729.00.2.1745E-003
729.50.2.1462E-003
730.00.2.1016E-003
730.50.2.0326E-003
731.00.1.9805E-003
731.50.1.9658E-003
732.00.1.9392E-003
732.50.1.9193E-003
733.00.1.9136E-003
733.50.1.8961E-003
734.00.1.8860E-003
734.50.1.8861E-003
735.00.1.8857E-003
735.50.1.8370E-003
736.00.1.7105E-003
736.50.1.5554E-003
737.00.1.4349E-003
737.50.1.4874E-003
738.00.1.6762E-003
738.50.1.7339E-003
739.00.1.5957E-003
739.50.1.5660E-003
740.00.1.5351E-003
740.50.1.5616E-003
741.00.1.4069E-003
741.50.1.3163E-003
742.00.1.2061E-003
742.50.1.1958E-003
743.00.1.2803E-003
743.50.1.2813E-003
744.00.1.2259E-003
744.50.1.1064E-003
745.00.1.0016E-003
745.50.1.0988E-003
746.00.1.3342E-003
746.50.1.4557E-003
747.00.1.4602E-003
747.50.1.3175E-003
748.00.1.0532E-003
748.50.8.5001E-004
749.00.9.2049E-004
749.50.1.1539E-003
750.00.1.1758E-003
750.50.8.8867E-004
751.00.5.9895E-004
751.50.6.4352E-004
752.00.1.0498E-003
752.50.1.1876E-003
753.00.1.0998E-003
753.50.9.6017E-004
754.00.8.3234E-004
754.50.7.9218E-004
755.00.8.5369E-004
755.50.9.2174E-004
756.00.9.2304E-004
756.50.9.4288E-004
757.00.9.4614E-004
757.50.8.7680E-004
758.00.8.4756E-004
758.50.8.6663E-004
759.00.8.2672E-004
759.50.7.6493E-004
760.00.7.3783E-004
760.50.6.5550E-004
761.00.6.4613E-004
761.50.6.4597E-004
762.00.6.9940E-004
762.50.6.0415E-004
763.00.5.8094E-004
763.50.6.2621E-004
764.00.7.9508E-004
764.50.7.2895E-004
765.00.7.1823E-004
765.50.6.9704E-004
766.00.7.5727E-004
766.50.7.6912E-004
767.00.8.2612E-004
767.50.7.7112E-004
768.00.6.6418E-004
768.50.5.7013E-004
769.00.5.3037E-004
769.50.4.6689E-004
770.00.3.9239E-004
770.50.4.3290E-004
771.00.4.9848E-004
771.50.5.0207E-004
772.00.5.3129E-004
772.50.5.0997E-004
773.00.5.6346E-004
773.50.6.9588E-004
774.00.7.4281E-004
774.50.7.2363E-004
775.00.5.8676E-004
775.50.4.2003E-004
776.00.3.3168E-004
776.50.3.2715E-004
777.00.4.0493E-004
777.50.3.2734E-004
778.00.3.9219E-004
778.50.4.2294E-004
779.00.5.0853E-004
779.50.4.6139E-004
780.00.4.1976E-004
780.50.3.1621E-004
781.00.3.4154E-004
781.50.3.1577E-004
782.00.3.2792E-004
782.50.2.7796E-004
783.00.2.4193E-004
783.50.3.0222E-004
784.00.3.8274E-004
784.50.3.9782E-004
785.00.2.4355E-004
785.50.1.6991E-004
786.00.1.9533E-004
786.50.2.4016E-004
787.00.1.8374E-004
787.50.1.0262E-004
788.00.7.2350E-005
788.50.1.3112E-004
789.00.1.5797E-004
789.50.9.0421E-005
790.00.7.3209E-005
790.50.1.4952E-004
791.00.2.8938E-005
791.50.3.5001E-006
792.00.2.4362E-004
792.50.4.3787E-004
793.00.5.0678E-004
793.50.3.4172E-004
794.00.3.0009E-004
794.50.3.4894E-004
795.00.2.8452E-004
795.50.1.4345E-005
796.00.0.0000E+000
796.50.0.0000E+000
797.00.0.0000E+000
797.50.8.3553E-006
798.00.1.1417E-004
798.50.3.5519E-004
799.00.3.9797E-004
799.50.1.9962E-004
800.00.2.2088E-005
800.50.2.6555E-005
801.00.8.9618E-005
801.50.2.0678E-005
802.00.0.0000E+000
802.50.0.0000E+000
803.00.0.0000E+000
803.50.9.0968E-005
804.00.2.5783E-005
804.50.2.2371E-005
805.00.1.1133E-004
805.50.1.3656E-004
806.00.1.1444E-005
806.50.4.4794E-006
807.00.0.0000E+000
807.50.0.0000E+000
808.00.0.0000E+000
808.50.1.0845E-004
809.00.9.0734E-005
809.50.4.4674E-006
810.00.2.6244E-005
810.50.0.0000E+000
811.00.0.0000E+000
811.50.4.2671E-005
812.00.1.2143E-006
812.50.0.0000E+000
813.00.0.0000E+000
813.50.1.1215E-005
814.00.1.2474E-005
814.50.1.5020E-004
815.00.2.7928E-004
815.50.5.0112E-004
816.00.1.8737E-004
816.50.0.0000E+000
817.00.0.0000E+000
817.50.0.0000E+000
818.00.0.0000E+000
818.50.0.0000E+000
819.00.0.0000E+000
819.50.0.0000E+000
820.00.0.0000E+000
820.50.0.0000E+000
821.00.0.0000E+000
821.50.0.0000E+000
822.00.0.0000E+000
822.50.5.8763E-005
823.00.2.0500E-004
823.50.2.1147E-004
824.00.9.3148E-005
824.50.6.7608E-005
825.00.1.1308E-005
825.50.0.0000E+000
826.00.0.0000E+000
826.50.0.0000E+000
827.00.0.0000E+000
827.50.0.0000E+000
828.00.0.0000E+000
828.50.0.0000E+000
829.00.0.0000E+000
829.50.0.0000E+000
830.00.0.0000E+000
830.50.0.0000E+000
831.00.0.0000E+000
831.50.0.0000E+000
832.00.0.0000E+000
832.50.0.0000E+000
833.00.0.0000E+000
833.50.0.0000E+000
834.00.0.0000E+000
834.50.2.3526E-005
835.00.0.0000E+000
835.50.0.0000E+000
836.00.0.0000E+000
836.50.0.0000E+000
837.00.0.0000E+000
837.50.8.3613E-005
838.00.4.0606E-005
838.50.0.0000E+000
839.00.6.7822E-005
839.50.1.8917E-004
840.00.3.5480E-004
840.50.2.1889E-004
841.00.0.0000E+000
841.50.0.0000E+000
842.00.0.0000E+000
842.50.0.0000E+000
843.00.0.0000E+000
843.50.0.0000E+000
844.00.0.0000E+000
844.50.0.0000E+000
845.00.0.0000E+000
845.50.0.0000E+000
846.00.0.0000E+000
846.50.0.0000E+000
847.00.5.4493E-005
847.50.1.1099E-004
848.00.1.9937E-004
848.50.1.3636E-004
849.00.3.1273E-005
849.50.5.4779E-006
850.00.2.7304E-006
850.50.1.5512E-006
851.00.1.9484E-004
851.50.3.3207E-004
852.00.0.0000E+000
852.50.0.0000E+000
853.00.0.0000E+000
853.50.0.0000E+000
854.00.0.0000E+000
854.50.0.0000E+000
855.00.0.0000E+000
855.50.0.0000E+000
856.00.0.0000E+000
856.50.0.0000E+000
857.00.0.0000E+000
857.50.0.0000E+000
858.00.0.0000E+000
858.50.0.0000E+000
859.00.0.0000E+000
859.50.0.0000E+000
860.00.0.0000E+000
860.50.0.0000E+000
861.00.0.0000E+000
861.50.0.0000E+000
862.00.0.0000E+000
862.50.0.0000E+000
863.00.0.0000E+000
863.50.0.0000E+000
864.00.0.0000E+000
864.50.0.0000E+000
865.00.0.0000E+000
865.50.0.0000E+000
866.00.0.0000E+000
866.50.0.0000E+000
867.00.0.0000E+000
867.50.1.7392E-004
868.00.7.4939E-005
868.50.1.1742E-004
869.00.0.0000E+000
869.50.0.0000E+000
870.00.0.0000E+000
870.50.0.0000E+000
871.00.0.0000E+000
871.50.0.0000E+000
872.00.0.0000E+000
872.50.0.0000E+000
873.00.1.2236E-005
873.50.4.4078E-004
874.00.4.3473E-004
874.50.0.0000E+000
875.00.0.0000E+000
875.50.0.0000E+000
876.00.0.0000E+000
876.50.0.0000E+000
877.00.0.0000E+000
877.50.0.0000E+000
878.00.0.0000E+000
878.50.2.1473E-004
879.00.0.0000E+000
879.50.0.0000E+000
880.00.0.0000E+000
880.50.0.0000E+000
881.00.0.0000E+000
881.50.0.0000E+000
882.00.0.0000E+000
882.50.0.0000E+000
883.00.4.4941E-005
883.50.1.8220E-004
884.00.7.8118E-005
884.50.0.0000E+000
885.00.0.0000E+000
885.50.0.0000E+000
886.00.0.0000E+000
886.50.1.1747E-004
887.00.2.0584E-004
887.50.0.0000E+000
888.00.0.0000E+000
888.50.0.0000E+000
889.00.0.0000E+000
889.50.0.0000E+000
890.00.0.0000E+000
890.50.0.0000E+000
891.00.0.0000E+000
891.50.0.0000E+000
892.00.0.0000E+000
892.50.0.0000E+000
893.00.0.0000E+000
893.50.0.0000E+000
894.00.0.0000E+000
894.50.4.5074E-004
895.00.1.2301E-003
895.50.0.0000E+000
896.00.0.0000E+000
896.50.0.0000E+000
897.00.0.0000E+000
897.50.0.0000E+000
898.00.0.0000E+000
898.50.2.5347E-005
899.00.1.9167E-005
899.50.0.0000E+000