wavelength,intensity
 273.00,0.0000E+000
 273.50,0.0000E+000
 274.00,0.0000E+000
 274.50,0.0000E+000
 275.00,0.0000E+000
 275.50,0.0000E+000
 276.00,0.0000E+000
 276.50,0.0000E+000
 277.00,0.0000E+000
 277.50,0.0000E+000
 278.00,0.0000E+000
 278.50,0.0000E+000
 279.00,0.0000E+000
 279.50,0.0000E+000
 280.00,0.0000E+000
 280.50,0.0000E+000
 281.00,0.0000E+000
 281.50,0.0000E+000
 282.00,0.0000E+000
 282.50,0.0000E+000
 283.00,0.0000E+000
 283.50,0.0000E+000
 284.00,0.0000E+000
 284.50,0.0000E+000
 285.00,0.0000E+000
 285.50,0.0000E+000
 286.00,0.0000E+000
 286.50,0.0000E+000
 287.00,0.0000E+000
 287.50,0.0000E+000
 288.00,0.0000E+000
 288.50,0.0000E+000
 289.00,0.0000E+000
 289.50,0.0000E+000
 290.00,0.0000E+000
 290.50,0.0000E+000
 291.00,0.0000E+000
 291.50,0.0000E+000
 292.00,0.0000E+000
 292.50,0.0000E+000
 293.00,0.0000E+000
 293.50,0.0000E+000
 294.00,0.0000E+000
 294.50,0.0000E+000
 295.00,0.0000E+000
 295.50,0.0000E+000
 296.00,0.0000E+000
 296.50,0.0000E+000
 297.00,0.0000E+000
 297.50,0.0000E+000
 298.00,0.0000E+000
 298.50,0.0000E+000
 299.00,0.0000E+000
 299.50,0.0000E+000
 300.00,0.0000E+000
 300.50,0.0000E+000
 301.00,0.0000E+000
 301.50,0.0000E+000
 302.00,0.0000E+000
 302.50,0.0000E+000
 303.00,0.0000E+000
 303.50,0.0000E+000
 304.00,0.0000E+000
 304.50,0.0000E+000
 305.00,0.0000E+000
 305.50,0.0000E+000
 306.00,0.0000E+000
 306.50,0.0000E+000
 307.00,0.0000E+000
 307.50,0.0000E+000
 308.00,0.0000E+000
 308.50,0.0000E+000
 309.00,0.0000E+000
 309.50,0.0000E+000
 310.00,0.0000E+000
 310.50,0.0000E+000
 311.00,0.0000E+000
 311.50,0.0000E+000
 312.00,0.0000E+000
 312.50,0.0000E+000
 313.00,0.0000E+000
 313.50,0.0000E+000
 314.00,0.0000E+000
 314.50,0.0000E+000
 315.00,0.0000E+000
 315.50,0.0000E+000
 316.00,0.0000E+000
 316.50,0.0000E+000
 317.00,0.0000E+000
 317.50,0.0000E+000
 318.00,0.0000E+000
 318.50,0.0000E+000
 319.00,0.0000E+000
 319.50,0.0000E+000
 320.00,0.0000E+000
 320.50,0.0000E+000
 321.00,0.0000E+000
 321.50,0.0000E+000
 322.00,0.0000E+000
 322.50,0.0000E+000
 323.00,0.0000E+000
 323.50,0.0000E+000
 324.00,0.0000E+000
 324.50,0.0000E+000
 325.00,0.0000E+000
 325.50,0.0000E+000
 326.00,0.0000E+000
 326.50,0.0000E+000
 327.00,0.0000E+000
 327.50,0.0000E+000
 328.00,0.0000E+000
 328.50,0.0000E+000
 329.00,0.0000E+000
 329.50,0.0000E+000
 330.00,0.0000E+000
 330.50,0.0000E+000
 331.00,0.0000E+000
 331.50,0.0000E+000
 332.00,0.0000E+000
 332.50,0.0000E+000
 333.00,0.0000E+000
 333.50,0.0000E+000
 334.00,0.0000E+000
 334.50,0.0000E+000
 335.00,0.0000E+000
 335.50,0.0000E+000
 336.00,0.0000E+000
 336.50,0.0000E+000
 337.00,0.0000E+000
 337.50,0.0000E+000
 338.00,0.0000E+000
 338.50,0.0000E+000
 339.00,0.0000E+000
 339.50,0.0000E+000
 340.00,0.0000E+000
 340.50,0.0000E+000
 341.00,0.0000E+000
 341.50,0.0000E+000
 342.00,0.0000E+000
 342.50,0.0000E+000
 343.00,0.0000E+000
 343.50,0.0000E+000
 344.00,0.0000E+000
 344.50,0.0000E+000
 345.00,0.0000E+000
 345.50,0.0000E+000
 346.00,0.0000E+000
 346.50,0.0000E+000
 347.00,0.0000E+000
 347.50,0.0000E+000
 348.00,0.0000E+000
 348.50,0.0000E+000
 349.00,0.0000E+000
 349.50,0.0000E+000
 350.00,0.0000E+000
 350.50,0.0000E+000
 351.00,0.0000E+000
 351.50,0.0000E+000
 352.00,0.0000E+000
 352.50,0.0000E+000
 353.00,0.0000E+000
 353.50,0.0000E+000
 354.00,0.0000E+000
 354.50,0.0000E+000
 355.00,0.0000E+000
 355.50,0.0000E+000
 356.00,0.0000E+000
 356.50,0.0000E+000
 357.00,0.0000E+000
 357.50,0.0000E+000
 358.00,0.0000E+000
 358.50,0.0000E+000
 359.00,0.0000E+000
 359.50,0.0000E+000
 360.00,0.0000E+000
 360.50,0.0000E+000
 361.00,0.0000E+000
 361.50,0.0000E+000
 362.00,0.0000E+000
 362.50,0.0000E+000
 363.00,0.0000E+000
 363.50,0.0000E+000
 364.00,0.0000E+000
 364.50,0.0000E+000
 365.00,0.0000E+000
 365.50,0.0000E+000
 366.00,0.0000E+000
 366.50,0.0000E+000
 367.00,0.0000E+000
 367.50,0.0000E+000
 368.00,0.0000E+000
 368.50,0.0000E+000
 369.00,0.0000E+000
 369.50,0.0000E+000
 370.00,0.0000E+000
 370.50,0.0000E+000
 371.00,0.0000E+000
 371.50,0.0000E+000
 372.00,0.0000E+000
 372.50,0.0000E+000
 373.00,0.0000E+000
 373.50,0.0000E+000
 374.00,0.0000E+000
 374.50,0.0000E+000
 375.00,0.0000E+000
 375.50,0.0000E+000
 376.00,0.0000E+000
 376.50,0.0000E+000
 377.00,0.0000E+000
 377.50,0.0000E+000
 378.00,0.0000E+000
 378.50,0.0000E+000
 379.00,0.0000E+000
 379.50,0.0000E+000
 380.00,3.9737E-006
 380.50,3.5940E-005
 381.00,1.0900E-004
 381.50,9.3883E-005
 382.00,2.1370E-005
 382.50,0.0000E+000
 383.00,0.0000E+000
 383.50,0.0000E+000
 384.00,0.0000E+000
 384.50,0.0000E+000
 385.00,1.2448E-006
 385.50,4.7976E-005
 386.00,5.2512E-005
 386.50,5.2468E-005
 387.00,7.0339E-005
 387.50,7.3314E-005
 388.00,3.6134E-005
 388.50,9.3415E-006
 389.00,0.0000E+000
 389.50,0.0000E+000
 390.00,1.8052E-005
 390.50,7.9689E-005
 391.00,1.4233E-004
 391.50,1.8542E-004
 392.00,1.8176E-004
 392.50,1.5093E-004
 393.00,1.2201E-004
 393.50,1.0189E-004
 394.00,1.0161E-004
 394.50,1.1829E-004
 395.00,9.9200E-005
 395.50,1.1119E-004
 396.00,1.4184E-004
 396.50,1.7294E-004
 397.00,2.3277E-004
 397.50,2.6481E-004
 398.00,2.9571E-004
 398.50,3.5654E-004
 399.00,3.7951E-004
 399.50,4.2647E-004
 400.00,4.8889E-004
 400.50,5.2923E-004
 401.00,5.8751E-004
 401.50,6.4140E-004
 402.00,6.7409E-004
 402.50,7.3287E-004
 403.00,7.9720E-004
 403.50,8.9934E-004
 404.00,1.0324E-003
 404.50,1.1529E-003
 405.00,1.2520E-003
 405.50,1.2956E-003
 406.00,1.3208E-003
 406.50,1.4321E-003
 407.00,1.6024E-003
 407.50,1.7911E-003
 408.00,1.9923E-003
 408.50,2.1064E-003
 409.00,2.2681E-003
 409.50,2.4786E-003
 410.00,2.7299E-003
 410.50,3.0563E-003
 411.00,3.3804E-003
 411.50,3.7161E-003
 412.00,4.0604E-003
 412.50,4.3648E-003
 413.00,4.6482E-003
 413.50,5.0101E-003
 414.00,5.4019E-003
 414.50,5.8551E-003
 415.00,6.3428E-003
 415.50,6.8261E-003
 416.00,7.4289E-003
 416.50,8.0613E-003
 417.00,8.7591E-003
 417.50,9.4787E-003
 418.00,1.0230E-002
 418.50,1.1000E-002
 419.00,1.1824E-002
 419.50,1.2780E-002
 420.00,1.3843E-002
 420.50,1.5012E-002
 421.00,1.6170E-002
 421.50,1.7280E-002
 422.00,1.8411E-002
 422.50,1.9585E-002
 423.00,2.0975E-002
 423.50,2.2519E-002
 424.00,2.4125E-002
 424.50,2.5702E-002
 425.00,2.7302E-002
 425.50,2.8890E-002
 426.00,3.0588E-002
 426.50,3.2337E-002
 427.00,3.4261E-002
 427.50,3.6312E-002
 428.00,3.8477E-002
 428.50,4.0484E-002
 429.00,4.2474E-002
 429.50,4.4577E-002
 430.00,4.6815E-002
 430.50,4.9080E-002
 431.00,5.1217E-002
 431.50,5.3252E-002
 432.00,5.5465E-002
 432.50,5.7987E-002
 433.00,6.0643E-002
 433.50,6.3282E-002
 434.00,6.5992E-002
 434.50,6.8808E-002
 435.00,7.1866E-002
 435.50,7.4976E-002
 436.00,7.8136E-002
 436.50,8.1456E-002
 437.00,8.4983E-002
 437.50,8.8506E-002
 438.00,9.2001E-002
 438.50,9.5068E-002
 439.00,9.7987E-002
 439.50,1.0113E-001
 440.00,1.0437E-001
 440.50,1.0772E-001
 441.00,1.1072E-001
 441.50,1.1324E-001
 442.00,1.1529E-001
 442.50,1.1670E-001
 443.00,1.1771E-001
 443.50,1.1824E-001
 444.00,1.1838E-001
 444.50,1.1811E-001
 445.00,1.1728E-001
 445.50,1.1564E-001
 446.00,1.1353E-001
 446.50,1.1059E-001
 447.00,1.0722E-001
 447.50,1.0360E-001
 448.00,9.9594E-002
 448.50,9.5468E-002
 449.00,9.1236E-002
 449.50,8.6932E-002
 450.00,8.2678E-002
 450.50,7.8308E-002
 451.00,7.3967E-002
 451.50,6.9791E-002
 452.00,6.5828E-002
 452.50,6.1951E-002
 453.00,5.8336E-002
 453.50,5.4914E-002
 454.00,5.1914E-002
 454.50,4.9172E-002
 455.00,4.6716E-002
 455.50,4.4335E-002
 456.00,4.2035E-002
 456.50,4.0018E-002
 457.00,3.8252E-002
 457.50,3.6614E-002
 458.00,3.4955E-002
 458.50,3.3293E-002
 459.00,3.1769E-002
 459.50,3.0379E-002
 460.00,2.9132E-002
 460.50,2.7898E-002
 461.00,2.6776E-002
 461.50,2.5637E-002
 462.00,2.4568E-002
 462.50,2.3429E-002
 463.00,2.2296E-002
 463.50,2.1175E-002
 464.00,2.0088E-002
 464.50,1.9109E-002
 465.00,1.8267E-002
 465.50,1.7470E-002
 466.00,1.6632E-002
 466.50,1.5767E-002
 467.00,1.4892E-002
 467.50,1.4171E-002
 468.00,1.3557E-002
 468.50,1.2943E-002
 469.00,1.2317E-002
 469.50,1.1725E-002
 470.00,1.1188E-002
 470.50,1.0784E-002
 471.00,1.0380E-002
 471.50,9.9463E-003
 472.00,9.5305E-003
 472.50,9.1707E-003
 473.00,8.8722E-003
 473.50,8.6876E-003
 474.00,8.4233E-003
 474.50,8.1650E-003
 475.00,7.8927E-003
 475.50,7.6374E-003
 476.00,7.4200E-003
 476.50,7.2298E-003
 477.00,7.0526E-003
 477.50,6.8720E-003
 478.00,6.6914E-003
 478.50,6.5598E-003
 479.00,6.4526E-003
 479.50,6.3807E-003
 480.00,6.2744E-003
 480.50,6.1800E-003
 481.00,6.0742E-003
 481.50,5.9778E-003
 482.00,5.9052E-003
 482.50,5.8129E-003
 483.00,5.7555E-003
 483.50,5.7422E-003
 484.00,5.7607E-003
 484.50,5.7590E-003
 485.00,5.7445E-003
 485.50,5.7116E-003
 486.00,5.7281E-003
 486.50,5.8136E-003
 487.00,5.9010E-003
 487.50,5.9937E-003
 488.00,6.0933E-003
 488.50,6.2017E-003
 489.00,6.3613E-003
 489.50,6.5179E-003
 490.00,6.6689E-003
 490.50,6.8638E-003
 491.00,7.0586E-003
 491.50,7.2904E-003
 492.00,7.5320E-003
 492.50,7.8014E-003
 493.00,8.1137E-003
 493.50,8.4399E-003
 494.00,8.7531E-003
 494.50,9.0822E-003
 495.00,9.4482E-003
 495.50,9.8655E-003
 496.00,1.0271E-002
 496.50,1.0730E-002
 497.00,1.1196E-002
 497.50,1.1692E-002
 498.00,1.2194E-002
 498.50,1.2662E-002
 499.00,1.3166E-002
 499.50,1.3678E-002
 500.00,1.4205E-002
 500.50,1.4753E-002
 501.00,1.5359E-002
 501.50,1.6030E-002
 502.00,1.6727E-002
 502.50,1.7404E-002
 503.00,1.8054E-002
 503.50,1.8716E-002
 504.00,1.9430E-002
 504.50,2.0125E-002
 505.00,2.0867E-002
 505.50,2.1596E-002
 506.00,2.2367E-002
 506.50,2.3143E-002
 507.00,2.3927E-002
 507.50,2.4728E-002
 508.00,2.5561E-002
 508.50,2.6361E-002
 509.00,2.7196E-002
 509.50,2.7991E-002
 510.00,2.8887E-002
 510.50,2.9732E-002
 511.00,3.0636E-002
 511.50,3.1488E-002
 512.00,3.2365E-002
 512.50,3.3193E-002
 513.00,3.4073E-002
 513.50,3.4951E-002
 514.00,3.5846E-002
 514.50,3.6742E-002
 515.00,3.7580E-002
 515.50,3.8402E-002
 516.00,3.9233E-002
 516.50,4.0098E-002
 517.00,4.0954E-002
 517.50,4.1816E-002
 518.00,4.2617E-002
 518.50,4.3406E-002
 519.00,4.4202E-002
 519.50,4.4978E-002
 520.00,4.5766E-002
 520.50,4.6546E-002
 521.00,4.7319E-002
 521.50,4.8065E-002
 522.00,4.8835E-002
 522.50,4.9594E-002
 523.00,5.0304E-002
 523.50,5.0964E-002
 524.00,5.1590E-002
 524.50,5.2290E-002
 525.00,5.2897E-002
 525.50,5.3540E-002
 526.00,5.4189E-002
 526.50,5.4869E-002
 527.00,5.5562E-002
 527.50,5.6124E-002
 528.00,5.6587E-002
 528.50,5.7074E-002
 529.00,5.7536E-002
 529.50,5.8081E-002
 530.00,5.8616E-002
 530.50,5.9050E-002
 531.00,5.9502E-002
 531.50,5.9900E-002
 532.00,6.0339E-002
 532.50,6.0816E-002
 533.00,6.1302E-002
 533.50,6.1809E-002
 534.00,6.2214E-002
 534.50,6.2592E-002
 535.00,6.2964E-002
 535.50,6.3341E-002
 536.00,6.3741E-002
 536.50,6.4088E-002
 537.00,6.4350E-002
 537.50,6.4585E-002
 538.00,6.4895E-002
 538.50,6.5237E-002
 539.00,6.5664E-002
 539.50,6.5977E-002
 540.00,6.6329E-002
 540.50,6.6671E-002
 541.00,6.6994E-002
 541.50,6.7264E-002
 542.00,6.7468E-002
 542.50,6.7664E-002
 543.00,6.7899E-002
 543.50,6.8082E-002
 544.00,6.8302E-002
 544.50,6.8424E-002
 545.00,6.8603E-002
 545.50,6.8816E-002
 546.00,6.8961E-002
 546.50,6.9195E-002
 547.00,6.9384E-002
 547.50,6.9568E-002
 548.00,6.9726E-002
 548.50,6.9835E-002
 549.00,6.9996E-002
 549.50,7.0107E-002
 550.00,7.0151E-002
 550.50,7.0295E-002
 551.00,7.0380E-002
 551.50,7.0542E-002
 552.00,7.0660E-002
 552.50,7.0810E-002
 553.00,7.0970E-002
 553.50,7.1051E-002
 554.00,7.1122E-002
 554.50,7.1249E-002
 555.00,7.1327E-002
 555.50,7.1394E-002
 556.00,7.1407E-002
 556.50,7.1430E-002
 557.00,7.1489E-002
 557.50,7.1602E-002
 558.00,7.1683E-002
 558.50,7.1774E-002
 559.00,7.1780E-002
 559.50,7.1769E-002
 560.00,7.1859E-002
 560.50,7.1937E-002
 561.00,7.2010E-002
 561.50,7.2012E-002
 562.00,7.1955E-002
 562.50,7.1933E-002
 563.00,7.1919E-002
 563.50,7.1888E-002
 564.00,7.1825E-002
 564.50,7.1662E-002
 565.00,7.1489E-002
 565.50,7.1354E-002
 566.00,7.1349E-002
 566.50,7.1327E-002
 567.00,7.1216E-002
 567.50,7.1046E-002
 568.00,7.0958E-002
 568.50,7.0977E-002
 569.00,7.0955E-002
 569.50,7.0863E-002
 570.00,7.0687E-002
 570.50,7.0586E-002
 571.00,7.0415E-002
 571.50,7.0232E-002
 572.00,7.0081E-002
 572.50,6.9981E-002
 573.00,6.9946E-002
 573.50,6.9916E-002
 574.00,6.9863E-002
 574.50,6.9679E-002
 575.00,6.9420E-002
 575.50,6.9174E-002
 576.00,6.9033E-002
 576.50,6.9023E-002
 577.00,6.8856E-002
 577.50,6.8702E-002
 578.00,6.8441E-002
 578.50,6.8303E-002
 579.00,6.8087E-002
 579.50,6.7853E-002
 580.00,6.7602E-002
 580.50,6.7422E-002
 581.00,6.7255E-002
 581.50,6.7069E-002
 582.00,6.6858E-002
 582.50,6.6710E-002
 583.00,6.6577E-002
 583.50,6.6426E-002
 584.00,6.6124E-002
 584.50,6.5796E-002
 585.00,6.5413E-002
 585.50,6.5093E-002
 586.00,6.4837E-002
 586.50,6.4633E-002
 587.00,6.4473E-002
 587.50,6.4246E-002
 588.00,6.3962E-002
 588.50,6.3655E-002
 589.00,6.3403E-002
 589.50,6.3089E-002
 590.00,6.2886E-002
 590.50,6.2681E-002
 591.00,6.2533E-002
 591.50,6.2318E-002
 592.00,6.2030E-002
 592.50,6.1756E-002
 593.00,6.1476E-002
 593.50,6.1137E-002
 594.00,6.0832E-002
 594.50,6.0442E-002
 595.00,6.0110E-002
 595.50,5.9706E-002
 596.00,5.9407E-002
 596.50,5.9193E-002
 597.00,5.8961E-002
 597.50,5.8612E-002
 598.00,5.8197E-002
 598.50,5.7854E-002
 599.00,5.7574E-002
 599.50,5.7275E-002
 600.00,5.6892E-002
 600.50,5.6414E-002
 601.00,5.5974E-002
 601.50,5.5574E-002
 602.00,5.5299E-002
 602.50,5.5013E-002
 603.00,5.4666E-002
 603.50,5.4237E-002
 604.00,5.3763E-002
 604.50,5.3415E-002
 605.00,5.3040E-002
 605.50,5.2715E-002
 606.00,5.2293E-002
 606.50,5.2003E-002
 607.00,5.1675E-002
 607.50,5.1335E-002
 608.00,5.0908E-002
 608.50,5.0441E-002
 609.00,5.0063E-002
 609.50,4.9719E-002
 610.00,4.9396E-002
 610.50,4.9128E-002
 611.00,4.8751E-002
 611.50,4.8379E-002
 612.00,4.7992E-002
 612.50,4.7637E-002
 613.00,4.7208E-002
 613.50,4.6720E-002
 614.00,4.6260E-002
 614.50,4.5953E-002
 615.00,4.5663E-002
 615.50,4.5283E-002
 616.00,4.4899E-002
 616.50,4.4505E-002
 617.00,4.4213E-002
 617.50,4.3889E-002
 618.00,4.3547E-002
 618.50,4.3092E-002
 619.00,4.2650E-002
 619.50,4.2141E-002
 620.00,4.1690E-002
 620.50,4.1356E-002
 621.00,4.1113E-002
 621.50,4.0861E-002
 622.00,4.0490E-002
 622.50,4.0140E-002
 623.00,3.9753E-002
 623.50,3.9398E-002
 624.00,3.8969E-002
 624.50,3.8688E-002
 625.00,3.8371E-002
 625.50,3.8109E-002
 626.00,3.7705E-002
 626.50,3.7297E-002
 627.00,3.6865E-002
 627.50,3.6500E-002
 628.00,3.6224E-002
 628.50,3.5866E-002
 629.00,3.5490E-002
 629.50,3.5123E-002
 630.00,3.4813E-002
 630.50,3.4515E-002
 631.00,3.4178E-002
 631.50,3.3878E-002
 632.00,3.3614E-002
 632.50,3.3268E-002
 633.00,3.2923E-002
 633.50,3.2550E-002
 634.00,3.2244E-002
 634.50,3.2008E-002
 635.00,3.1755E-002
 635.50,3.1358E-002
 636.00,3.0886E-002
 636.50,3.0440E-002
 637.00,3.0125E-002
 637.50,2.9802E-002
 638.00,2.9477E-002
 638.50,2.9216E-002
 639.00,2.9039E-002
 639.50,2.8817E-002
 640.00,2.8407E-002
 640.50,2.7951E-002
 641.00,2.7612E-002
 641.50,2.7379E-002
 642.00,2.7215E-002
 642.50,2.6912E-002
 643.00,2.6612E-002
 643.50,2.6218E-002
 644.00,2.5922E-002
 644.50,2.5681E-002
 645.00,2.5505E-002
 645.50,2.5226E-002
 646.00,2.4898E-002
 646.50,2.4563E-002
 647.00,2.4358E-002
 647.50,2.4182E-002
 648.00,2.3918E-002
 648.50,2.3643E-002
 649.00,2.3375E-002
 649.50,2.3089E-002
 650.00,2.2742E-002
 650.50,2.2383E-002
 651.00,2.2128E-002
 651.50,2.1883E-002
 652.00,2.1637E-002
 652.50,2.1429E-002
 653.00,2.1193E-002
 653.50,2.0976E-002
 654.00,2.0704E-002
 654.50,2.0428E-002
 655.00,2.0172E-002
 655.50,1.9929E-002
 656.00,1.9722E-002
 656.50,1.9491E-002
 657.00,1.9272E-002
 657.50,1.9104E-002
 658.00,1.8907E-002
 658.50,1.8642E-002
 659.00,1.8389E-002
 659.50,1.8184E-002
 660.00,1.7948E-002
 660.50,1.7665E-002
 661.00,1.7393E-002
 661.50,1.7235E-002
 662.00,1.7033E-002
 662.50,1.6849E-002
 663.00,1.6662E-002
 663.50,1.6508E-002
 664.00,1.6312E-002
 664.50,1.6037E-002
 665.00,1.5793E-002
 665.50,1.5553E-002
 666.00,1.5375E-002
 666.50,1.5197E-002
 667.00,1.4925E-002
 667.50,1.4706E-002
 668.00,1.4505E-002
 668.50,1.4372E-002
 669.00,1.4179E-002
 669.50,1.3958E-002
 670.00,1.3771E-002
 670.50,1.3612E-002
 671.00,1.3464E-002
 671.50,1.3317E-002
 672.00,1.3110E-002
 672.50,1.2897E-002
 673.00,1.2722E-002
 673.50,1.2601E-002
 674.00,1.2511E-002
 674.50,1.2354E-002
 675.00,1.2188E-002
 675.50,1.2024E-002
 676.00,1.1828E-002
 676.50,1.1671E-002
 677.00,1.1541E-002
 677.50,1.1479E-002
 678.00,1.1393E-002
 678.50,1.1225E-002
 679.00,1.1052E-002
 679.50,1.0812E-002
 680.00,1.0650E-002
 680.50,1.0476E-002
 681.00,1.0366E-002
 681.50,1.0223E-002
 682.00,1.0063E-002
 682.50,9.9503E-003
 683.00,9.8828E-003
 683.50,9.7967E-003
 684.00,9.6725E-003
 684.50,9.5322E-003
 685.00,9.3886E-003
 685.50,9.2732E-003
 686.00,9.1783E-003
 686.50,9.0932E-003
 687.00,8.8673E-003
 687.50,8.6981E-003
 688.00,8.5711E-003
 688.50,8.4714E-003
 689.00,8.2660E-003
 689.50,8.1279E-003
 690.00,8.0745E-003
 690.50,8.0075E-003
 691.00,7.9060E-003
 691.50,7.8131E-003
 692.00,7.7506E-003
 692.50,7.6646E-003
 693.00,7.5201E-003
 693.50,7.4269E-003
 694.00,7.3117E-003
 694.50,7.2146E-003
 695.00,7.1120E-003
 695.50,7.0273E-003
 696.00,6.9126E-003
 696.50,6.7822E-003
 697.00,6.6940E-003
 697.50,6.6382E-003
 698.00,6.6012E-003
 698.50,6.4830E-003
 699.00,6.3901E-003
 699.50,6.3490E-003
 700.00,6.3319E-003
 700.50,6.2730E-003
 701.00,6.1710E-003
 701.50,6.0003E-003
 702.00,5.8118E-003
 702.50,5.6013E-003
 703.00,5.4529E-003
 703.50,5.4324E-003
 704.00,5.4234E-003
 704.50,5.4971E-003
 705.00,5.4434E-003
 705.50,5.3391E-003
 706.00,5.1697E-003
 706.50,5.0280E-003
 707.00,4.9414E-003
 707.50,4.9678E-003
 708.00,4.9378E-003
 708.50,4.8059E-003
 709.00,4.6363E-003
 709.50,4.6185E-003
 710.00,4.6236E-003
 710.50,4.4936E-003
 711.00,4.3682E-003
 711.50,4.3676E-003
 712.00,4.4373E-003
 712.50,4.4498E-003
 713.00,4.3875E-003
 713.50,4.2796E-003
 714.00,4.1683E-003
 714.50,4.0436E-003
 715.00,3.9125E-003
 715.50,3.7953E-003
 716.00,3.7314E-003
 716.50,3.7037E-003
 717.00,3.6944E-003
 717.50,3.7527E-003
 718.00,3.7919E-003
 718.50,3.7505E-003
 719.00,3.6882E-003
 719.50,3.6215E-003
 720.00,3.5124E-003
 720.50,3.4130E-003
 721.00,3.3202E-003
 721.50,3.2475E-003
 722.00,3.1963E-003
 722.50,3.1081E-003
 723.00,3.0242E-003
 723.50,2.9176E-003
 724.00,2.9198E-003
 724.50,2.9504E-003
 725.00,2.9835E-003
 725.50,2.9195E-003
 726.00,2.8848E-003
 726.50,2.8431E-003
 727.00,2.8350E-003
 727.50,2.7856E-003
 728.00,2.7230E-003
 728.50,2.5735E-003
 729.00,2.4344E-003
 729.50,2.4480E-003
 730.00,2.5767E-003
 730.50,2.6092E-003
 731.00,2.5159E-003
 731.50,2.3469E-003
 732.00,2.2986E-003
 732.50,2.2710E-003
 733.00,2.3206E-003
 733.50,2.2900E-003
 734.00,2.2421E-003
 734.50,2.1806E-003
 735.00,2.1076E-003
 735.50,2.0109E-003
 736.00,2.0012E-003
 736.50,1.9403E-003
 737.00,1.8976E-003
 737.50,1.8333E-003
 738.00,1.7899E-003
 738.50,1.7289E-003
 739.00,1.7004E-003
 739.50,1.7033E-003
 740.00,1.7734E-003
 740.50,1.8429E-003
 741.00,1.8498E-003
 741.50,1.7532E-003
 742.00,1.6999E-003
 742.50,1.7059E-003
 743.00,1.6546E-003
 743.50,1.5384E-003
 744.00,1.3630E-003
 744.50,1.2374E-003
 745.00,1.2674E-003
 745.50,1.3230E-003
 746.00,1.3400E-003
 746.50,1.2812E-003
 747.00,1.3175E-003
 747.50,1.3072E-003
 748.00,1.2101E-003
 748.50,1.1002E-003
 749.00,1.0868E-003
 749.50,1.1897E-003
 750.00,1.2136E-003
 750.50,1.2519E-003
 751.00,1.3360E-003
 751.50,1.3500E-003
 752.00,1.2342E-003
 752.50,1.1477E-003
 753.00,1.0744E-003
 753.50,1.0752E-003
 754.00,1.0477E-003
 754.50,1.1404E-003
 755.00,1.1706E-003
 755.50,1.0778E-003
 756.00,9.9417E-004
 756.50,9.6435E-004
 757.00,1.0251E-003
 757.50,9.7899E-004
 758.00,9.1468E-004
 758.50,9.1310E-004
 759.00,8.7101E-004
 759.50,8.2575E-004
 760.00,6.5253E-004
 760.50,5.7631E-004
 761.00,6.0971E-004
 761.50,7.4096E-004
 762.00,7.8982E-004
 762.50,6.1397E-004
 763.00,4.7898E-004
 763.50,5.4374E-004
 764.00,5.0484E-004
 764.50,2.9251E-004
 765.00,1.8141E-004
 765.50,3.4090E-004
 766.00,5.4863E-004
 766.50,6.6312E-004
 767.00,4.7555E-004
 767.50,2.2797E-004
 768.00,1.1752E-004
 768.50,2.2159E-004
 769.00,2.7942E-004
 769.50,2.3340E-004
 770.00,2.1154E-004
 770.50,1.1190E-004
 771.00,3.9912E-006
 771.50,0.0000E+000
 772.00,0.0000E+000
 772.50,0.0000E+000
 773.00,2.5371E-005
 773.50,2.6526E-004
 774.00,3.7472E-004
 774.50,3.1536E-004
 775.00,2.0579E-004
 775.50,1.6013E-004
 776.00,1.0390E-004
 776.50,2.1242E-006
 777.00,0.0000E+000
 777.50,0.0000E+000
 778.00,0.0000E+000
 778.50,0.0000E+000
 779.00,0.0000E+000
 779.50,0.0000E+000
 780.00,0.0000E+000
 780.50,0.0000E+000
 781.00,0.0000E+000
 781.50,0.0000E+000
 782.00,0.0000E+000
 782.50,0.0000E+000
 783.00,0.0000E+000
 783.50,0.0000E+000
 784.00,0.0000E+000
 784.50,0.0000E+000
 785.00,0.0000E+000
 785.50,0.0000E+000
 786.00,0.0000E+000
 786.50,0.0000E+000
 787.00,0.0000E+000
 787.50,0.0000E+000
 788.00,0.0000E+000
 788.50,0.0000E+000
 789.00,0.0000E+000
 789.50,0.0000E+000
 790.00,0.0000E+000
 790.50,0.0000E+000
 791.00,0.0000E+000
 791.50,0.0000E+000
 792.00,0.0000E+000
 792.50,0.0000E+000
 793.00,0.0000E+000
 793.50,0.0000E+000
 794.00,0.0000E+000
 794.50,0.0000E+000
 795.00,0.0000E+000
 795.50,0.0000E+000
 796.00,0.0000E+000
 796.50,0.0000E+000
 797.00,0.0000E+000
 797.50,0.0000E+000
 798.00,0.0000E+000
 798.50,0.0000E+000
 799.00,0.0000E+000
 799.50,0.0000E+000
 800.00,0.0000E+000
 800.50,0.0000E+000
 801.00,0.0000E+000
 801.50,0.0000E+000
 802.00,0.0000E+000
 802.50,0.0000E+000
 803.00,0.0000E+000
 803.50,0.0000E+000
 804.00,0.0000E+000
 804.50,0.0000E+000
 805.00,0.0000E+000
 805.50,0.0000E+000
 806.00,0.0000E+000
 806.50,0.0000E+000
 807.00,0.0000E+000
 807.50,0.0000E+000
 808.00,0.0000E+000
 808.50,0.0000E+000
 809.00,0.0000E+000
 809.50,0.0000E+000
 810.00,0.0000E+000
 810.50,0.0000E+000
 811.00,0.0000E+000
 811.50,0.0000E+000
 812.00,0.0000E+000
 812.50,0.0000E+000
 813.00,0.0000E+000
 813.50,0.0000E+000
 814.00,0.0000E+000
 814.50,0.0000E+000
 815.00,0.0000E+000
 815.50,0.0000E+000
 816.00,0.0000E+000
 816.50,0.0000E+000
 817.00,0.0000E+000
 817.50,0.0000E+000
 818.00,0.0000E+000
 818.50,0.0000E+000
 819.00,0.0000E+000
 819.50,0.0000E+000
 820.00,0.0000E+000
 820.50,0.0000E+000
 821.00,0.0000E+000
 821.50,0.0000E+000
 822.00,0.0000E+000
 822.50,0.0000E+000
 823.00,0.0000E+000
 823.50,0.0000E+000
 824.00,0.0000E+000
 824.50,0.0000E+000
 825.00,0.0000E+000
 825.50,0.0000E+000
 826.00,0.0000E+000
 826.50,0.0000E+000
 827.00,0.0000E+000
 827.50,0.0000E+000
 828.00,0.0000E+000
 828.50,0.0000E+000
 829.00,0.0000E+000
 829.50,0.0000E+000
 830.00,0.0000E+000
 830.50,0.0000E+000
 831.00,0.0000E+000
 831.50,0.0000E+000
 832.00,0.0000E+000
 832.50,0.0000E+000
 833.00,0.0000E+000
 833.50,0.0000E+000
 834.00,0.0000E+000
 834.50,0.0000E+000
 835.00,0.0000E+000
 835.50,0.0000E+000
 836.00,0.0000E+000
 836.50,0.0000E+000
 837.00,0.0000E+000
 837.50,0.0000E+000
 838.00,0.0000E+000
 838.50,0.0000E+000
 839.00,0.0000E+000
 839.50,0.0000E+000
 840.00,0.0000E+000
 840.50,0.0000E+000
 841.00,0.0000E+000
 841.50,0.0000E+000
 842.00,0.0000E+000
 842.50,0.0000E+000
 843.00,0.0000E+000
 843.50,0.0000E+000
 844.00,0.0000E+000
 844.50,0.0000E+000
 845.00,0.0000E+000
 845.50,0.0000E+000
 846.00,0.0000E+000
 846.50,0.0000E+000
 847.00,0.0000E+000
 847.50,0.0000E+000
 848.00,0.0000E+000
 848.50,0.0000E+000
 849.00,0.0000E+000
 849.50,0.0000E+000
 850.00,0.0000E+000
 850.50,0.0000E+000
 851.00,0.0000E+000
 851.50,0.0000E+000
 852.00,0.0000E+000
 852.50,0.0000E+000
 853.00,0.0000E+000
 853.50,0.0000E+000
 854.00,0.0000E+000
 854.50,0.0000E+000
 855.00,0.0000E+000
 855.50,0.0000E+000
 856.00,0.0000E+000
 856.50,0.0000E+000
 857.00,0.0000E+000
 857.50,0.0000E+000
 858.00,0.0000E+000
 858.50,0.0000E+000
 859.00,0.0000E+000
 859.50,0.0000E+000
 860.00,0.0000E+000
 860.50,0.0000E+000
 861.00,0.0000E+000
 861.50,0.0000E+000
 862.00,0.0000E+000
 862.50,0.0000E+000
 863.00,0.0000E+000
 863.50,0.0000E+000
 864.00,0.0000E+000
 864.50,0.0000E+000
 865.00,0.0000E+000
 865.50,0.0000E+000
 866.00,0.0000E+000
 866.50,0.0000E+000
 867.00,0.0000E+000
 867.50,0.0000E+000
 868.00,0.0000E+000
 868.50,0.0000E+000
 869.00,0.0000E+000
 869.50,0.0000E+000
 870.00,0.0000E+000
 870.50,0.0000E+000
 871.00,0.0000E+000
 871.50,0.0000E+000
 872.00,0.0000E+000
 872.50,0.0000E+000
 873.00,0.0000E+000
 873.50,0.0000E+000
 874.00,0.0000E+000
 874.50,0.0000E+000
 875.00,0.0000E+000
 875.50,0.0000E+000
 876.00,0.0000E+000
 876.50,0.0000E+000
 877.00,0.0000E+000
 877.50,0.0000E+000
 878.00,0.0000E+000
 878.50,0.0000E+000
 879.00,0.0000E+000
 879.50,0.0000E+000
 880.00,0.0000E+000
 880.50,0.0000E+000
 881.00,0.0000E+000
 881.50,0.0000E+000
 882.00,0.0000E+000
 882.50,0.0000E+000
 883.00,0.0000E+000
 883.50,0.0000E+000
 884.00,0.0000E+000
 884.50,0.0000E+000
 885.00,0.0000E+000
 885.50,0.0000E+000
 886.00,0.0000E+000
 886.50,1.9389E-005
 887.00,7.8163E-004
 887.50,3.4552E-004
 888.00,0.0000E+000
 888.50,3.6559E-004
 889.00,7.4789E-006
 889.50,0.0000E+000
 890.00,0.0000E+000
 890.50,0.0000E+000
 891.00,0.0000E+000
 891.50,0.0000E+000
 892.00,0.0000E+000
 892.50,0.0000E+000
 893.00,0.0000E+000
 893.50,0.0000E+000
 894.00,0.0000E+000
 894.50,0.0000E+000
 895.00,0.0000E+000
 895.50,0.0000E+000
 896.00,0.0000E+000
 896.50,0.0000E+000
 897.00,0.0000E+000
 897.50,0.0000E+000
 898.00,0.0000E+000
 898.50,0.0000E+000
 899.00,0.0000E+000
 899.50,0.0000E+000

