wavelength,intensity
 273.00,0.0000E+000
 273.50,0.0000E+000
 274.00,0.0000E+000
 274.50,0.0000E+000
 275.00,0.0000E+000
 275.50,0.0000E+000
 276.00,0.0000E+000
 276.50,0.0000E+000
 277.00,0.0000E+000
 277.50,0.0000E+000
 278.00,0.0000E+000
 278.50,0.0000E+000
 279.00,0.0000E+000
 279.50,0.0000E+000
 280.00,0.0000E+000
 280.50,0.0000E+000
 281.00,0.0000E+000
 281.50,0.0000E+000
 282.00,0.0000E+000
 282.50,0.0000E+000
 283.00,0.0000E+000
 283.50,0.0000E+000
 284.00,0.0000E+000
 284.50,0.0000E+000
 285.00,0.0000E+000
 285.50,0.0000E+000
 286.00,0.0000E+000
 286.50,0.0000E+000
 287.00,0.0000E+000
 287.50,0.0000E+000
 288.00,0.0000E+000
 288.50,0.0000E+000
 289.00,0.0000E+000
 289.50,0.0000E+000
 290.00,0.0000E+000
 290.50,0.0000E+000
 291.00,0.0000E+000
 291.50,0.0000E+000
 292.00,0.0000E+000
 292.50,0.0000E+000
 293.00,0.0000E+000
 293.50,0.0000E+000
 294.00,0.0000E+000
 294.50,0.0000E+000
 295.00,0.0000E+000
 295.50,0.0000E+000
 296.00,0.0000E+000
 296.50,0.0000E+000
 297.00,0.0000E+000
 297.50,0.0000E+000
 298.00,0.0000E+000
 298.50,0.0000E+000
 299.00,0.0000E+000
 299.50,0.0000E+000
 300.00,0.0000E+000
 300.50,0.0000E+000
 301.00,0.0000E+000
 301.50,0.0000E+000
 302.00,0.0000E+000
 302.50,0.0000E+000
 303.00,0.0000E+000
 303.50,0.0000E+000
 304.00,0.0000E+000
 304.50,0.0000E+000
 305.00,0.0000E+000
 305.50,0.0000E+000
 306.00,0.0000E+000
 306.50,0.0000E+000
 307.00,0.0000E+000
 307.50,0.0000E+000
 308.00,0.0000E+000
 308.50,0.0000E+000
 309.00,0.0000E+000
 309.50,0.0000E+000
 310.00,0.0000E+000
 310.50,0.0000E+000
 311.00,0.0000E+000
 311.50,0.0000E+000
 312.00,0.0000E+000
 312.50,0.0000E+000
 313.00,0.0000E+000
 313.50,0.0000E+000
 314.00,0.0000E+000
 314.50,0.0000E+000
 315.00,0.0000E+000
 315.50,0.0000E+000
 316.00,0.0000E+000
 316.50,0.0000E+000
 317.00,0.0000E+000
 317.50,0.0000E+000
 318.00,0.0000E+000
 318.50,0.0000E+000
 319.00,0.0000E+000
 319.50,0.0000E+000
 320.00,0.0000E+000
 320.50,0.0000E+000
 321.00,0.0000E+000
 321.50,0.0000E+000
 322.00,0.0000E+000
 322.50,0.0000E+000
 323.00,0.0000E+000
 323.50,0.0000E+000
 324.00,0.0000E+000
 324.50,0.0000E+000
 325.00,0.0000E+000
 325.50,0.0000E+000
 326.00,0.0000E+000
 326.50,0.0000E+000
 327.00,0.0000E+000
 327.50,0.0000E+000
 328.00,0.0000E+000
 328.50,0.0000E+000
 329.00,0.0000E+000
 329.50,0.0000E+000
 330.00,0.0000E+000
 330.50,0.0000E+000
 331.00,0.0000E+000
 331.50,0.0000E+000
 332.00,0.0000E+000
 332.50,0.0000E+000
 333.00,0.0000E+000
 333.50,0.0000E+000
 334.00,0.0000E+000
 334.50,0.0000E+000
 335.00,0.0000E+000
 335.50,0.0000E+000
 336.00,0.0000E+000
 336.50,0.0000E+000
 337.00,0.0000E+000
 337.50,0.0000E+000
 338.00,0.0000E+000
 338.50,0.0000E+000
 339.00,0.0000E+000
 339.50,0.0000E+000
 340.00,0.0000E+000
 340.50,0.0000E+000
 341.00,0.0000E+000
 341.50,0.0000E+000
 342.00,0.0000E+000
 342.50,0.0000E+000
 343.00,0.0000E+000
 343.50,0.0000E+000
 344.00,0.0000E+000
 344.50,0.0000E+000
 345.00,0.0000E+000
 345.50,0.0000E+000
 346.00,0.0000E+000
 346.50,0.0000E+000
 347.00,0.0000E+000
 347.50,0.0000E+000
 348.00,0.0000E+000
 348.50,0.0000E+000
 349.00,0.0000E+000
 349.50,0.0000E+000
 350.00,0.0000E+000
 350.50,0.0000E+000
 351.00,0.0000E+000
 351.50,0.0000E+000
 352.00,0.0000E+000
 352.50,0.0000E+000
 353.00,0.0000E+000
 353.50,0.0000E+000
 354.00,0.0000E+000
 354.50,0.0000E+000
 355.00,0.0000E+000
 355.50,0.0000E+000
 356.00,0.0000E+000
 356.50,0.0000E+000
 357.00,0.0000E+000
 357.50,0.0000E+000
 358.00,0.0000E+000
 358.50,0.0000E+000
 359.00,0.0000E+000
 359.50,0.0000E+000
 360.00,0.0000E+000
 360.50,0.0000E+000
 361.00,0.0000E+000
 361.50,0.0000E+000
 362.00,0.0000E+000
 362.50,0.0000E+000
 363.00,0.0000E+000
 363.50,0.0000E+000
 364.00,0.0000E+000
 364.50,0.0000E+000
 365.00,0.0000E+000
 365.50,0.0000E+000
 366.00,0.0000E+000
 366.50,0.0000E+000
 367.00,0.0000E+000
 367.50,0.0000E+000
 368.00,0.0000E+000
 368.50,0.0000E+000
 369.00,0.0000E+000
 369.50,0.0000E+000
 370.00,0.0000E+000
 370.50,0.0000E+000
 371.00,0.0000E+000
 371.50,0.0000E+000
 372.00,0.0000E+000
 372.50,0.0000E+000
 373.00,0.0000E+000
 373.50,0.0000E+000
 374.00,0.0000E+000
 374.50,0.0000E+000
 375.00,0.0000E+000
 375.50,0.0000E+000
 376.00,0.0000E+000
 376.50,0.0000E+000
 377.00,0.0000E+000
 377.50,0.0000E+000
 378.00,0.0000E+000
 378.50,0.0000E+000
 379.00,0.0000E+000
 379.50,0.0000E+000
 380.00,0.0000E+000
 380.50,0.0000E+000
 381.00,0.0000E+000
 381.50,0.0000E+000
 382.00,0.0000E+000
 382.50,0.0000E+000
 383.00,0.0000E+000
 383.50,0.0000E+000
 384.00,0.0000E+000
 384.50,0.0000E+000
 385.00,0.0000E+000
 385.50,0.0000E+000
 386.00,0.0000E+000
 386.50,0.0000E+000
 387.00,0.0000E+000
 387.50,0.0000E+000
 388.00,0.0000E+000
 388.50,0.0000E+000
 389.00,0.0000E+000
 389.50,0.0000E+000
 390.00,0.0000E+000
 390.50,0.0000E+000
 391.00,0.0000E+000
 391.50,0.0000E+000
 392.00,0.0000E+000
 392.50,0.0000E+000
 393.00,0.0000E+000
 393.50,0.0000E+000
 394.00,0.0000E+000
 394.50,0.0000E+000
 395.00,0.0000E+000
 395.50,0.0000E+000
 396.00,0.0000E+000
 396.50,0.0000E+000
 397.00,0.0000E+000
 397.50,0.0000E+000
 398.00,0.0000E+000
 398.50,0.0000E+000
 399.00,0.0000E+000
 399.50,0.0000E+000
 400.00,0.0000E+000
 400.50,0.0000E+000
 401.00,0.0000E+000
 401.50,0.0000E+000
 402.00,0.0000E+000
 402.50,0.0000E+000
 403.00,0.0000E+000
 403.50,0.0000E+000
 404.00,0.0000E+000
 404.50,0.0000E+000
 405.00,0.0000E+000
 405.50,0.0000E+000
 406.00,0.0000E+000
 406.50,0.0000E+000
 407.00,0.0000E+000
 407.50,0.0000E+000
 408.00,0.0000E+000
 408.50,0.0000E+000
 409.00,0.0000E+000
 409.50,0.0000E+000
 410.00,0.0000E+000
 410.50,0.0000E+000
 411.00,0.0000E+000
 411.50,0.0000E+000
 412.00,0.0000E+000
 412.50,0.0000E+000
 413.00,0.0000E+000
 413.50,0.0000E+000
 414.00,0.0000E+000
 414.50,0.0000E+000
 415.00,0.0000E+000
 415.50,0.0000E+000
 416.00,0.0000E+000
 416.50,7.7663E-005
 417.00,1.5468E-004
 417.50,1.9704E-004
 418.00,2.0426E-004
 418.50,1.8955E-004
 419.00,2.2247E-004
 419.50,2.8583E-004
 420.00,3.6432E-004
 420.50,4.6057E-004
 421.00,5.5450E-004
 421.50,5.9117E-004
 422.00,6.2030E-004
 422.50,6.0092E-004
 423.00,6.1805E-004
 423.50,6.8352E-004
 424.00,7.6979E-004
 424.50,8.6549E-004
 425.00,9.3113E-004
 425.50,9.8610E-004
 426.00,1.0120E-003
 426.50,1.0359E-003
 427.00,1.1012E-003
 427.50,1.1486E-003
 428.00,1.2352E-003
 428.50,1.3637E-003
 429.00,1.4965E-003
 429.50,1.6598E-003
 430.00,1.7537E-003
 430.50,1.8538E-003
 431.00,1.8916E-003
 431.50,1.9313E-003
 432.00,1.9852E-003
 432.50,2.0965E-003
 433.00,2.2715E-003
 433.50,2.4357E-003
 434.00,2.5248E-003
 434.50,2.5279E-003
 435.00,2.5633E-003
 435.50,2.6556E-003
 436.00,2.8557E-003
 436.50,3.1034E-003
 437.00,3.3881E-003
 437.50,3.6253E-003
 438.00,3.7961E-003
 438.50,3.9079E-003
 439.00,3.9999E-003
 439.50,4.1521E-003
 440.00,4.3325E-003
 440.50,4.5523E-003
 441.00,4.7672E-003
 441.50,5.0039E-003
 442.00,5.2581E-003
 442.50,5.4413E-003
 443.00,5.6443E-003
 443.50,5.8058E-003
 444.00,5.9199E-003
 444.50,6.1188E-003
 445.00,6.3204E-003
 445.50,6.5169E-003
 446.00,6.7044E-003
 446.50,6.8555E-003
 447.00,6.9442E-003
 447.50,7.0359E-003
 448.00,7.1069E-003
 448.50,7.1414E-003
 449.00,7.1370E-003
 449.50,7.0942E-003
 450.00,7.0125E-003
 450.50,6.8885E-003
 451.00,6.7715E-003
 451.50,6.6425E-003
 452.00,6.5456E-003
 452.50,6.4446E-003
 453.00,6.3142E-003
 453.50,6.1342E-003
 454.00,5.9775E-003
 454.50,5.8272E-003
 455.00,5.7232E-003
 455.50,5.6249E-003
 456.00,5.5151E-003
 456.50,5.4232E-003
 457.00,5.3463E-003
 457.50,5.2183E-003
 458.00,5.0718E-003
 458.50,4.8820E-003
 459.00,4.7470E-003
 459.50,4.6648E-003
 460.00,4.5955E-003
 460.50,4.5075E-003
 461.00,4.3740E-003
 461.50,4.2932E-003
 462.00,4.2534E-003
 462.50,4.2217E-003
 463.00,4.2263E-003
 463.50,4.1729E-003
 464.00,4.1376E-003
 464.50,4.0902E-003
 465.00,4.0284E-003
 465.50,4.0161E-003
 466.00,3.9674E-003
 466.50,3.9153E-003
 467.00,3.8322E-003
 467.50,3.7369E-003
 468.00,3.7178E-003
 468.50,3.6785E-003
 469.00,3.6467E-003
 469.50,3.5994E-003
 470.00,3.5390E-003
 470.50,3.4920E-003
 471.00,3.4649E-003
 471.50,3.4585E-003
 472.00,3.4915E-003
 472.50,3.4829E-003
 473.00,3.4261E-003
 473.50,3.3288E-003
 474.00,3.2287E-003
 474.50,3.1974E-003
 475.00,3.2206E-003
 475.50,3.3021E-003
 476.00,3.3458E-003
 476.50,3.4095E-003
 477.00,3.4008E-003
 477.50,3.3705E-003
 478.00,3.3501E-003
 478.50,3.3701E-003
 479.00,3.4208E-003
 479.50,3.4841E-003
 480.00,3.5183E-003
 480.50,3.5794E-003
 481.00,3.6538E-003
 481.50,3.6971E-003
 482.00,3.7166E-003
 482.50,3.7082E-003
 483.00,3.7014E-003
 483.50,3.7344E-003
 484.00,3.7853E-003
 484.50,3.8790E-003
 485.00,3.9531E-003
 485.50,4.0051E-003
 486.00,4.0316E-003
 486.50,4.0958E-003
 487.00,4.1590E-003
 487.50,4.2387E-003
 488.00,4.3161E-003
 488.50,4.3736E-003
 489.00,4.4390E-003
 489.50,4.4833E-003
 490.00,4.5132E-003
 490.50,4.5822E-003
 491.00,4.6647E-003
 491.50,4.7978E-003
 492.00,4.8954E-003
 492.50,4.9891E-003
 493.00,5.0835E-003
 493.50,5.1419E-003
 494.00,5.1956E-003
 494.50,5.2461E-003
 495.00,5.3422E-003
 495.50,5.4574E-003
 496.00,5.5567E-003
 496.50,5.6716E-003
 497.00,5.7799E-003
 497.50,5.8772E-003
 498.00,5.9618E-003
 498.50,6.0431E-003
 499.00,6.1535E-003
 499.50,6.2623E-003
 500.00,6.3412E-003
 500.50,6.4288E-003
 501.00,6.5093E-003
 501.50,6.6122E-003
 502.00,6.7413E-003
 502.50,6.8631E-003
 503.00,6.9682E-003
 503.50,7.0330E-003
 504.00,7.0761E-003
 504.50,7.1279E-003
 505.00,7.2030E-003
 505.50,7.2751E-003
 506.00,7.3821E-003
 506.50,7.4994E-003
 507.00,7.6235E-003
 507.50,7.7385E-003
 508.00,7.8455E-003
 508.50,7.9549E-003
 509.00,8.0581E-003
 509.50,8.1496E-003
 510.00,8.2229E-003
 510.50,8.2739E-003
 511.00,8.3578E-003
 511.50,8.4329E-003
 512.00,8.5320E-003
 512.50,8.6423E-003
 513.00,8.7460E-003
 513.50,8.8709E-003
 514.00,8.9756E-003
 514.50,9.0761E-003
 515.00,9.1376E-003
 515.50,9.2391E-003
 516.00,9.3468E-003
 516.50,9.4436E-003
 517.00,9.5023E-003
 517.50,9.5378E-003
 518.00,9.6065E-003
 518.50,9.7446E-003
 519.00,9.8587E-003
 519.50,9.9485E-003
 520.00,1.0011E-002
 520.50,1.0044E-002
 521.00,1.0135E-002
 521.50,1.0220E-002
 522.00,1.0312E-002
 522.50,1.0415E-002
 523.00,1.0506E-002
 523.50,1.0596E-002
 524.00,1.0648E-002
 524.50,1.0680E-002
 525.00,1.0749E-002
 525.50,1.0842E-002
 526.00,1.0922E-002
 526.50,1.0996E-002
 527.00,1.1086E-002
 527.50,1.1211E-002
 528.00,1.1289E-002
 528.50,1.1339E-002
 529.00,1.1387E-002
 529.50,1.1455E-002
 530.00,1.1574E-002
 530.50,1.1676E-002
 531.00,1.1786E-002
 531.50,1.1887E-002
 532.00,1.2011E-002
 532.50,1.2187E-002
 533.00,1.2326E-002
 533.50,1.2433E-002
 534.00,1.2496E-002
 534.50,1.2536E-002
 535.00,1.2616E-002
 535.50,1.2690E-002
 536.00,1.2811E-002
 536.50,1.2909E-002
 537.00,1.3042E-002
 537.50,1.3114E-002
 538.00,1.3197E-002
 538.50,1.3260E-002
 539.00,1.3396E-002
 539.50,1.3547E-002
 540.00,1.3687E-002
 540.50,1.3777E-002
 541.00,1.3868E-002
 541.50,1.4001E-002
 542.00,1.4126E-002
 542.50,1.4227E-002
 543.00,1.4294E-002
 543.50,1.4354E-002
 544.00,1.4467E-002
 544.50,1.4651E-002
 545.00,1.4854E-002
 545.50,1.5030E-002
 546.00,1.5119E-002
 546.50,1.5159E-002
 547.00,1.5204E-002
 547.50,1.5279E-002
 548.00,1.5418E-002
 548.50,1.5550E-002
 549.00,1.5708E-002
 549.50,1.5819E-002
 550.00,1.5909E-002
 550.50,1.6011E-002
 551.00,1.6149E-002
 551.50,1.6349E-002
 552.00,1.6537E-002
 552.50,1.6714E-002
 553.00,1.6857E-002
 553.50,1.6985E-002
 554.00,1.7092E-002
 554.50,1.7224E-002
 555.00,1.7356E-002
 555.50,1.7517E-002
 556.00,1.7658E-002
 556.50,1.7780E-002
 557.00,1.7889E-002
 557.50,1.8032E-002
 558.00,1.8201E-002
 558.50,1.8359E-002
 559.00,1.8481E-002
 559.50,1.8598E-002
 560.00,1.8733E-002
 560.50,1.8898E-002
 561.00,1.9064E-002
 561.50,1.9237E-002
 562.00,1.9392E-002
 562.50,1.9582E-002
 563.00,1.9714E-002
 563.50,1.9870E-002
 564.00,2.0035E-002
 564.50,2.0238E-002
 565.00,2.0441E-002
 565.50,2.0555E-002
 566.00,2.0586E-002
 566.50,2.0656E-002
 567.00,2.0732E-002
 567.50,2.0856E-002
 568.00,2.1007E-002
 568.50,2.1207E-002
 569.00,2.1420E-002
 569.50,2.1606E-002
 570.00,2.1786E-002
 570.50,2.1969E-002
 571.00,2.2159E-002
 571.50,2.2288E-002
 572.00,2.2469E-002
 572.50,2.2632E-002
 573.00,2.2880E-002
 573.50,2.3089E-002
 574.00,2.3242E-002
 574.50,2.3407E-002
 575.00,2.3578E-002
 575.50,2.3699E-002
 576.00,2.3841E-002
 576.50,2.3944E-002
 577.00,2.4093E-002
 577.50,2.4290E-002
 578.00,2.4539E-002
 578.50,2.4836E-002
 579.00,2.5090E-002
 579.50,2.5247E-002
 580.00,2.5416E-002
 580.50,2.5538E-002
 581.00,2.5680E-002
 581.50,2.5714E-002
 582.00,2.5811E-002
 582.50,2.5898E-002
 583.00,2.6058E-002
 583.50,2.6308E-002
 584.00,2.6542E-002
 584.50,2.6749E-002
 585.00,2.6896E-002
 585.50,2.6999E-002
 586.00,2.7118E-002
 586.50,2.7257E-002
 587.00,2.7410E-002
 587.50,2.7624E-002
 588.00,2.7814E-002
 588.50,2.7976E-002
 589.00,2.8074E-002
 589.50,2.8144E-002
 590.00,2.8305E-002
 590.50,2.8428E-002
 591.00,2.8589E-002
 591.50,2.8699E-002
 592.00,2.8837E-002
 592.50,2.8960E-002
 593.00,2.9089E-002
 593.50,2.9217E-002
 594.00,2.9323E-002
 594.50,2.9397E-002
 595.00,2.9403E-002
 595.50,2.9451E-002
 596.00,2.9518E-002
 596.50,2.9647E-002
 597.00,2.9820E-002
 597.50,2.9978E-002
 598.00,3.0124E-002
 598.50,3.0109E-002
 599.00,3.0062E-002
 599.50,3.0006E-002
 600.00,3.0066E-002
 600.50,3.0219E-002
 601.00,3.0377E-002
 601.50,3.0433E-002
 602.00,3.0441E-002
 602.50,3.0428E-002
 603.00,3.0506E-002
 603.50,3.0525E-002
 604.00,3.0516E-002
 604.50,3.0512E-002
 605.00,3.0494E-002
 605.50,3.0501E-002
 606.00,3.0428E-002
 606.50,3.0357E-002
 607.00,3.0319E-002
 607.50,3.0330E-002
 608.00,3.0340E-002
 608.50,3.0308E-002
 609.00,3.0253E-002
 609.50,3.0260E-002
 610.00,3.0299E-002
 610.50,3.0276E-002
 611.00,3.0191E-002
 611.50,3.0059E-002
 612.00,2.9991E-002
 612.50,3.0001E-002
 613.00,2.9996E-002
 613.50,2.9948E-002
 614.00,2.9819E-002
 614.50,2.9657E-002
 615.00,2.9506E-002
 615.50,2.9402E-002
 616.00,2.9370E-002
 616.50,2.9339E-002
 617.00,2.9328E-002
 617.50,2.9225E-002
 618.00,2.9102E-002
 618.50,2.8934E-002
 619.00,2.8755E-002
 619.50,2.8565E-002
 620.00,2.8345E-002
 620.50,2.8193E-002
 621.00,2.8146E-002
 621.50,2.8043E-002
 622.00,2.7890E-002
 622.50,2.7714E-002
 623.00,2.7587E-002
 623.50,2.7500E-002
 624.00,2.7328E-002
 624.50,2.7145E-002
 625.00,2.6956E-002
 625.50,2.6826E-002
 626.00,2.6645E-002
 626.50,2.6448E-002
 627.00,2.6237E-002
 627.50,2.6144E-002
 628.00,2.6040E-002
 628.50,2.5867E-002
 629.00,2.5651E-002
 629.50,2.5398E-002
 630.00,2.5241E-002
 630.50,2.5075E-002
 631.00,2.4981E-002
 631.50,2.4853E-002
 632.00,2.4675E-002
 632.50,2.4500E-002
 633.00,2.4289E-002
 633.50,2.4066E-002
 634.00,2.3778E-002
 634.50,2.3514E-002
 635.00,2.3284E-002
 635.50,2.3087E-002
 636.00,2.2890E-002
 636.50,2.2718E-002
 637.00,2.2531E-002
 637.50,2.2402E-002
 638.00,2.2256E-002
 638.50,2.2120E-002
 639.00,2.1900E-002
 639.50,2.1678E-002
 640.00,2.1396E-002
 640.50,2.1069E-002
 641.00,2.0824E-002
 641.50,2.0655E-002
 642.00,2.0520E-002
 642.50,2.0305E-002
 643.00,2.0078E-002
 643.50,1.9948E-002
 644.00,1.9794E-002
 644.50,1.9609E-002
 645.00,1.9370E-002
 645.50,1.9160E-002
 646.00,1.8964E-002
 646.50,1.8778E-002
 647.00,1.8597E-002
 647.50,1.8426E-002
 648.00,1.8193E-002
 648.50,1.7945E-002
 649.00,1.7747E-002
 649.50,1.7532E-002
 650.00,1.7332E-002
 650.50,1.7104E-002
 651.00,1.6904E-002
 651.50,1.6692E-002
 652.00,1.6461E-002
 652.50,1.6313E-002
 653.00,1.6201E-002
 653.50,1.6131E-002
 654.00,1.5925E-002
 654.50,1.5655E-002
 655.00,1.5318E-002
 655.50,1.5093E-002
 656.00,1.4941E-002
 656.50,1.4811E-002
 657.00,1.4701E-002
 657.50,1.4478E-002
 658.00,1.4254E-002
 658.50,1.4036E-002
 659.00,1.3919E-002
 659.50,1.3792E-002
 660.00,1.3635E-002
 660.50,1.3485E-002
 661.00,1.3271E-002
 661.50,1.3102E-002
 662.00,1.2915E-002
 662.50,1.2795E-002
 663.00,1.2589E-002
 663.50,1.2437E-002
 664.00,1.2292E-002
 664.50,1.2149E-002
 665.00,1.1876E-002
 665.50,1.1634E-002
 666.00,1.1413E-002
 666.50,1.1315E-002
 667.00,1.1213E-002
 667.50,1.1053E-002
 668.00,1.0852E-002
 668.50,1.0631E-002
 669.00,1.0511E-002
 669.50,1.0404E-002
 670.00,1.0294E-002
 670.50,1.0111E-002
 671.00,9.9404E-003
 671.50,9.7996E-003
 672.00,9.6931E-003
 672.50,9.5372E-003
 673.00,9.3743E-003
 673.50,9.2328E-003
 674.00,9.1421E-003
 674.50,9.0952E-003
 675.00,9.0167E-003
 675.50,8.8747E-003
 676.00,8.6593E-003
 676.50,8.4932E-003
 677.00,8.4113E-003
 677.50,8.3528E-003
 678.00,8.2688E-003
 678.50,8.0498E-003
 679.00,7.8383E-003
 679.50,7.6232E-003
 680.00,7.4893E-003
 680.50,7.4118E-003
 681.00,7.4039E-003
 681.50,7.3979E-003
 682.00,7.3039E-003
 682.50,7.1167E-003
 683.00,6.9485E-003
 683.50,6.8486E-003
 684.00,6.8163E-003
 684.50,6.7533E-003
 685.00,6.6049E-003
 685.50,6.4224E-003
 686.00,6.2699E-003
 686.50,6.1472E-003
 687.00,6.0462E-003
 687.50,5.9608E-003
 688.00,5.9301E-003
 688.50,5.8759E-003
 689.00,5.7414E-003
 689.50,5.5909E-003
 690.00,5.4274E-003
 690.50,5.3863E-003
 691.00,5.3294E-003
 691.50,5.3017E-003
 692.00,5.2360E-003
 692.50,5.1096E-003
 693.00,4.9591E-003
 693.50,4.8161E-003
 694.00,4.7611E-003
 694.50,4.7506E-003
 695.00,4.6933E-003
 695.50,4.6356E-003
 696.00,4.5227E-003
 696.50,4.4297E-003
 697.00,4.3692E-003
 697.50,4.2733E-003
 698.00,4.2007E-003
 698.50,4.0396E-003
 699.00,3.8947E-003
 699.50,3.7798E-003
 700.00,3.7696E-003
 700.50,3.7735E-003
 701.00,3.7320E-003
 701.50,3.7044E-003
 702.00,3.6694E-003
 702.50,3.6244E-003
 703.00,3.5846E-003
 703.50,3.5500E-003
 704.00,3.4806E-003
 704.50,3.3311E-003
 705.00,3.1613E-003
 705.50,3.0319E-003
 706.00,3.0065E-003
 706.50,3.0087E-003
 707.00,2.9846E-003
 707.50,2.9546E-003
 708.00,2.9600E-003
 708.50,2.9543E-003
 709.00,2.8496E-003
 709.50,2.7127E-003
 710.00,2.6275E-003
 710.50,2.6289E-003
 711.00,2.5999E-003
 711.50,2.4703E-003
 712.00,2.3662E-003
 712.50,2.3387E-003
 713.00,2.3132E-003
 713.50,2.2322E-003
 714.00,2.1489E-003
 714.50,2.1930E-003
 715.00,2.1956E-003
 715.50,2.2406E-003
 716.00,2.1875E-003
 716.50,2.0866E-003
 717.00,1.9130E-003
 717.50,1.8765E-003
 718.00,1.8183E-003
 718.50,1.7925E-003
 719.00,1.7155E-003
 719.50,1.7094E-003
 720.00,1.6756E-003
 720.50,1.6598E-003
 721.00,1.6634E-003
 721.50,1.6354E-003
 722.00,1.5967E-003
 722.50,1.4975E-003
 723.00,1.4722E-003
 723.50,1.5217E-003
 724.00,1.5729E-003
 724.50,1.5393E-003
 725.00,1.3903E-003
 725.50,1.2710E-003
 726.00,1.1229E-003
 726.50,1.0432E-003
 727.00,1.0325E-003
 727.50,1.1350E-003
 728.00,1.1723E-003
 728.50,1.1117E-003
 729.00,9.9459E-004
 729.50,9.4242E-004
 730.00,9.9757E-004
 730.50,1.0525E-003
 731.00,9.9620E-004
 731.50,9.3502E-004
 732.00,9.1819E-004
 732.50,9.2553E-004
 733.00,8.2961E-004
 733.50,8.2086E-004
 734.00,8.0398E-004
 734.50,8.1740E-004
 735.00,7.3214E-004
 735.50,7.5985E-004
 736.00,8.1883E-004
 736.50,8.3731E-004
 737.00,8.2587E-004
 737.50,7.2566E-004
 738.00,6.6737E-004
 738.50,6.0342E-004
 739.00,6.0872E-004
 739.50,6.0356E-004
 740.00,6.2730E-004
 740.50,6.0398E-004
 741.00,5.7024E-004
 741.50,5.4271E-004
 742.00,5.2200E-004
 742.50,5.0724E-004
 743.00,5.0848E-004
 743.50,5.3142E-004
 744.00,4.3833E-004
 744.50,3.1943E-004
 745.00,3.2399E-004
 745.50,4.2581E-004
 746.00,4.1770E-004
 746.50,2.5261E-004
 747.00,2.2500E-004
 747.50,2.6144E-004
 748.00,3.5381E-004
 748.50,3.1604E-004
 749.00,3.1179E-004
 749.50,2.2745E-004
 750.00,2.0917E-004
 750.50,2.9190E-004
 751.00,2.9904E-004
 751.50,2.6053E-004
 752.00,8.4849E-005
 752.50,9.4632E-006
 753.00,1.0926E-005
 753.50,8.4522E-005
 754.00,8.0490E-005
 754.50,2.9947E-006
 755.00,0.0000E+000
 755.50,0.0000E+000
 756.00,0.0000E+000
 756.50,1.9575E-007
 757.00,3.2201E-005
 757.50,5.1319E-006
 758.00,0.0000E+000
 758.50,0.0000E+000
 759.00,0.0000E+000
 759.50,0.0000E+000
 760.00,0.0000E+000
 760.50,0.0000E+000
 761.00,0.0000E+000
 761.50,0.0000E+000
 762.00,0.0000E+000
 762.50,0.0000E+000
 763.00,0.0000E+000
 763.50,0.0000E+000
 764.00,0.0000E+000
 764.50,0.0000E+000
 765.00,0.0000E+000
 765.50,0.0000E+000
 766.00,0.0000E+000
 766.50,0.0000E+000
 767.00,0.0000E+000
 767.50,0.0000E+000
 768.00,0.0000E+000
 768.50,0.0000E+000
 769.00,0.0000E+000
 769.50,0.0000E+000
 770.00,0.0000E+000
 770.50,0.0000E+000
 771.00,0.0000E+000
 771.50,0.0000E+000
 772.00,0.0000E+000
 772.50,0.0000E+000
 773.00,0.0000E+000
 773.50,0.0000E+000
 774.00,0.0000E+000
 774.50,0.0000E+000
 775.00,0.0000E+000
 775.50,0.0000E+000
 776.00,0.0000E+000
 776.50,0.0000E+000
 777.00,0.0000E+000
 777.50,0.0000E+000
 778.00,0.0000E+000
 778.50,0.0000E+000
 779.00,0.0000E+000
 779.50,0.0000E+000
 780.00,0.0000E+000
 780.50,0.0000E+000
 781.00,0.0000E+000
 781.50,0.0000E+000
 782.00,0.0000E+000
 782.50,0.0000E+000
 783.00,0.0000E+000
 783.50,0.0000E+000
 784.00,0.0000E+000
 784.50,0.0000E+000
 785.00,0.0000E+000
 785.50,0.0000E+000
 786.00,0.0000E+000
 786.50,0.0000E+000
 787.00,0.0000E+000
 787.50,0.0000E+000
 788.00,0.0000E+000
 788.50,0.0000E+000
 789.00,0.0000E+000
 789.50,0.0000E+000
 790.00,0.0000E+000
 790.50,0.0000E+000
 791.00,0.0000E+000
 791.50,0.0000E+000
 792.00,0.0000E+000
 792.50,0.0000E+000
 793.00,0.0000E+000
 793.50,0.0000E+000
 794.00,0.0000E+000
 794.50,0.0000E+000
 795.00,0.0000E+000
 795.50,0.0000E+000
 796.00,0.0000E+000
 796.50,0.0000E+000
 797.00,0.0000E+000
 797.50,0.0000E+000
 798.00,0.0000E+000
 798.50,0.0000E+000
 799.00,0.0000E+000
 799.50,0.0000E+000
 800.00,0.0000E+000
 800.50,0.0000E+000
 801.00,0.0000E+000
 801.50,0.0000E+000
 802.00,0.0000E+000
 802.50,0.0000E+000
 803.00,0.0000E+000
 803.50,0.0000E+000
 804.00,0.0000E+000
 804.50,0.0000E+000
 805.00,0.0000E+000
 805.50,0.0000E+000
 806.00,0.0000E+000
 806.50,0.0000E+000
 807.00,0.0000E+000
 807.50,0.0000E+000
 808.00,0.0000E+000
 808.50,0.0000E+000
 809.00,0.0000E+000
 809.50,0.0000E+000
 810.00,0.0000E+000
 810.50,0.0000E+000
 811.00,0.0000E+000
 811.50,0.0000E+000
 812.00,0.0000E+000
 812.50,0.0000E+000
 813.00,0.0000E+000
 813.50,0.0000E+000
 814.00,0.0000E+000
 814.50,0.0000E+000
 815.00,0.0000E+000
 815.50,0.0000E+000
 816.00,0.0000E+000
 816.50,0.0000E+000
 817.00,0.0000E+000
 817.50,0.0000E+000
 818.00,0.0000E+000
 818.50,0.0000E+000
 819.00,0.0000E+000
 819.50,0.0000E+000
 820.00,0.0000E+000
 820.50,0.0000E+000
 821.00,0.0000E+000
 821.50,0.0000E+000
 822.00,0.0000E+000
 822.50,0.0000E+000
 823.00,0.0000E+000
 823.50,0.0000E+000
 824.00,0.0000E+000
 824.50,0.0000E+000
 825.00,0.0000E+000
 825.50,0.0000E+000
 826.00,0.0000E+000
 826.50,0.0000E+000
 827.00,0.0000E+000
 827.50,0.0000E+000
 828.00,0.0000E+000
 828.50,0.0000E+000
 829.00,0.0000E+000
 829.50,0.0000E+000
 830.00,0.0000E+000
 830.50,0.0000E+000
 831.00,0.0000E+000
 831.50,0.0000E+000
 832.00,0.0000E+000
 832.50,0.0000E+000
 833.00,0.0000E+000
 833.50,0.0000E+000
 834.00,0.0000E+000
 834.50,0.0000E+000
 835.00,0.0000E+000
 835.50,0.0000E+000
 836.00,0.0000E+000
 836.50,0.0000E+000
 837.00,0.0000E+000
 837.50,0.0000E+000
 838.00,0.0000E+000
 838.50,0.0000E+000
 839.00,0.0000E+000
 839.50,0.0000E+000
 840.00,0.0000E+000
 840.50,0.0000E+000
 841.00,0.0000E+000
 841.50,0.0000E+000
 842.00,0.0000E+000
 842.50,0.0000E+000
 843.00,0.0000E+000
 843.50,0.0000E+000
 844.00,0.0000E+000
 844.50,0.0000E+000
 845.00,0.0000E+000
 845.50,0.0000E+000
 846.00,0.0000E+000
 846.50,0.0000E+000
 847.00,0.0000E+000
 847.50,0.0000E+000
 848.00,0.0000E+000
 848.50,0.0000E+000
 849.00,0.0000E+000
 849.50,0.0000E+000
 850.00,0.0000E+000
 850.50,0.0000E+000
 851.00,0.0000E+000
 851.50,0.0000E+000
 852.00,0.0000E+000
 852.50,0.0000E+000
 853.00,0.0000E+000
 853.50,0.0000E+000
 854.00,0.0000E+000
 854.50,0.0000E+000
 855.00,0.0000E+000
 855.50,0.0000E+000
 856.00,0.0000E+000
 856.50,0.0000E+000
 857.00,0.0000E+000
 857.50,0.0000E+000
 858.00,0.0000E+000
 858.50,0.0000E+000
 859.00,0.0000E+000
 859.50,0.0000E+000
 860.00,0.0000E+000
 860.50,0.0000E+000
 861.00,0.0000E+000
 861.50,0.0000E+000
 862.00,0.0000E+000
 862.50,0.0000E+000
 863.00,0.0000E+000
 863.50,0.0000E+000
 864.00,0.0000E+000
 864.50,0.0000E+000
 865.00,0.0000E+000
 865.50,0.0000E+000
 866.00,0.0000E+000
 866.50,0.0000E+000
 867.00,0.0000E+000
 867.50,0.0000E+000
 868.00,0.0000E+000
 868.50,0.0000E+000
 869.00,0.0000E+000
 869.50,0.0000E+000
 870.00,0.0000E+000
 870.50,0.0000E+000
 871.00,0.0000E+000
 871.50,0.0000E+000
 872.00,0.0000E+000
 872.50,0.0000E+000
 873.00,0.0000E+000
 873.50,0.0000E+000
 874.00,0.0000E+000
 874.50,0.0000E+000
 875.00,0.0000E+000
 875.50,0.0000E+000
 876.00,0.0000E+000
 876.50,0.0000E+000
 877.00,0.0000E+000
 877.50,0.0000E+000
 878.00,0.0000E+000
 878.50,0.0000E+000
 879.00,0.0000E+000
 879.50,0.0000E+000
 880.00,0.0000E+000
 880.50,0.0000E+000
 881.00,0.0000E+000
 881.50,0.0000E+000
 882.00,0.0000E+000
 882.50,0.0000E+000
 883.00,0.0000E+000
 883.50,0.0000E+000
 884.00,0.0000E+000
 884.50,0.0000E+000
 885.00,0.0000E+000
 885.50,0.0000E+000
 886.00,0.0000E+000
 886.50,0.0000E+000
 887.00,0.0000E+000
 887.50,0.0000E+000
 888.00,0.0000E+000
 888.50,0.0000E+000
 889.00,0.0000E+000
 889.50,0.0000E+000
 890.00,0.0000E+000
 890.50,0.0000E+000
 891.00,0.0000E+000
 891.50,0.0000E+000
 892.00,0.0000E+000
 892.50,0.0000E+000
 893.00,0.0000E+000
 893.50,0.0000E+000
 894.00,0.0000E+000
 894.50,0.0000E+000
 895.00,0.0000E+000
 895.50,0.0000E+000
 896.00,0.0000E+000
 896.50,0.0000E+000
 897.00,0.0000E+000
 897.50,0.0000E+000
 898.00,0.0000E+000
 898.50,0.0000E+000
 899.00,0.0000E+000
 899.50,0.0000E+000

